# Cantera Thermodynamics
# Mechanism diatomic
# Computation done on 08-Feb-2020 14:37:43
# Species NO(X)
# Standard state T =    2.98150e+02 (K) P =    1.01325e+05 (Pa)
# C_P           2.98622e+01 (J/K mol)
# H             9.12708e+04 (J/mol)
# S             2.10747e+02 (J/K mol)
# C_P/R         3.59160e+00
# H/RT          3.68182e+01
# S/R           2.53470e+01
#     T            C_P/R           H/RT            S/R
   2.00000e+02,    3.66160e+00,    5.31105e+01,    2.39009e+01
   2.10000e+02,    3.65082e+00,    5.07555e+01,    2.40793e+01
   2.20000e+02,    3.64069e+00,    4.86142e+01,    2.42489e+01
   2.30000e+02,    3.63132e+00,    4.66586e+01,    2.44105e+01
   2.40000e+02,    3.62281e+00,    4.48656e+01,    2.45648e+01
   2.50000e+02,    3.61521e+00,    4.32157e+01,    2.47126e+01
   2.60000e+02,    3.60854e+00,    4.16925e+01,    2.48542e+01
   2.70000e+02,    3.60281e+00,    4.02819e+01,    2.49903e+01
   2.80000e+02,    3.59800e+00,    3.89718e+01,    2.51212e+01
   2.90000e+02,    3.59411e+00,    3.77520e+01,    2.52474e+01
   3.00000e+02,    3.59111e+00,    3.66133e+01,    2.53692e+01
   3.10000e+02,    3.58896e+00,    3.55481e+01,    2.54869e+01
   3.20000e+02,    3.58765e+00,    3.45493e+01,    2.56009e+01
   3.30000e+02,    3.58714e+00,    3.36111e+01,    2.57113e+01
   3.40000e+02,    3.58738e+00,    3.27280e+01,    2.58183e+01
   3.50000e+02,    3.58836e+00,    3.18954e+01,    2.59223e+01
   3.60000e+02,    3.59003e+00,    3.11091e+01,    2.60235e+01
   3.70000e+02,    3.59235e+00,    3.03654e+01,    2.61218e+01
   3.80000e+02,    3.59530e+00,    2.96609e+01,    2.62177e+01
   3.90000e+02,    3.59884e+00,    2.89926e+01,    2.63111e+01
   4.00000e+02,    3.60293e+00,    2.83578e+01,    2.64023e+01
   4.10000e+02,    3.60755e+00,    2.77541e+01,    2.64913e+01
   4.20000e+02,    3.61265e+00,    2.71792e+01,    2.65783e+01
   4.30000e+02,    3.61822e+00,    2.66312e+01,    2.66634e+01
   4.40000e+02,    3.62421e+00,    2.61083e+01,    2.67466e+01
   4.50000e+02,    3.63060e+00,    2.56087e+01,    2.68281e+01
   4.60000e+02,    3.63736e+00,    2.51310e+01,    2.69080e+01
   4.70000e+02,    3.64447e+00,    2.46737e+01,    2.69863e+01
   4.80000e+02,    3.65190e+00,    2.42357e+01,    2.70631e+01
   4.90000e+02,    3.65961e+00,    2.38157e+01,    2.71385e+01
   5.00000e+02,    3.66760e+00,    2.34127e+01,    2.72125e+01
   5.10000e+02,    3.67582e+00,    2.30256e+01,    2.72852e+01
   5.20000e+02,    3.68427e+00,    2.26536e+01,    2.73567e+01
   5.30000e+02,    3.69291e+00,    2.22957e+01,    2.74269e+01
   5.40000e+02,    3.70173e+00,    2.19513e+01,    2.74960e+01
   5.50000e+02,    3.71071e+00,    2.16196e+01,    2.75640e+01
   5.60000e+02,    3.71982e+00,    2.12999e+01,    2.76310e+01
   5.70000e+02,    3.72905e+00,    2.09915e+01,    2.76969e+01
   5.80000e+02,    3.73838e+00,    2.06940e+01,    2.77618e+01
   5.90000e+02,    3.74779e+00,    2.04067e+01,    2.78258e+01
   6.00000e+02,    3.75726e+00,    2.01291e+01,    2.78889e+01
   6.10000e+02,    3.76679e+00,    1.98608e+01,    2.79511e+01
   6.20000e+02,    3.77635e+00,    1.96013e+01,    2.80124e+01
   6.30000e+02,    3.78594e+00,    1.93502e+01,    2.80729e+01
   6.40000e+02,    3.79553e+00,    1.91071e+01,    2.81326e+01
   6.50000e+02,    3.80511e+00,    1.88716e+01,    2.81915e+01
   6.60000e+02,    3.81468e+00,    1.86434e+01,    2.82497e+01
   6.70000e+02,    3.82422e+00,    1.84221e+01,    2.83071e+01
   6.80000e+02,    3.83372e+00,    1.82075e+01,    2.83639e+01
   6.90000e+02,    3.84317e+00,    1.79993e+01,    2.84199e+01
   7.00000e+02,    3.85257e+00,    1.77971e+01,    2.84753e+01
   7.10000e+02,    3.86189e+00,    1.76008e+01,    2.85300e+01
   7.20000e+02,    3.87114e+00,    1.74100e+01,    2.85841e+01
   7.30000e+02,    3.88031e+00,    1.72246e+01,    2.86375e+01
   7.40000e+02,    3.88939e+00,    1.70443e+01,    2.86904e+01
   7.50000e+02,    3.89838e+00,    1.68690e+01,    2.87426e+01
   7.60000e+02,    3.90727e+00,    1.66984e+01,    2.87943e+01
   7.70000e+02,    3.91605e+00,    1.65323e+01,    2.88455e+01
   7.80000e+02,    3.92472e+00,    1.63706e+01,    2.88961e+01
   7.90000e+02,    3.93328e+00,    1.62132e+01,    2.89461e+01
   8.00000e+02,    3.94173e+00,    1.60597e+01,    2.89956e+01
   8.10000e+02,    3.95006e+00,    1.59102e+01,    2.90446e+01
   8.20000e+02,    3.95828e+00,    1.57643e+01,    2.90932e+01
   8.30000e+02,    3.96637e+00,    1.56222e+01,    2.91412e+01
   8.40000e+02,    3.97435e+00,    1.54834e+01,    2.91887e+01
   8.50000e+02,    3.98221e+00,    1.53481e+01,    2.92358e+01
   8.60000e+02,    3.98995e+00,    1.52160e+01,    2.92824e+01
   8.70000e+02,    3.99758e+00,    1.50870e+01,    2.93286e+01
   8.80000e+02,    4.00509e+00,    1.49610e+01,    2.93743e+01
   8.90000e+02,    4.01250e+00,    1.48380e+01,    2.94196e+01
   9.00000e+02,    4.01980e+00,    1.47177e+01,    2.94645e+01
   9.10000e+02,    4.02699e+00,    1.46002e+01,    2.95090e+01
   9.20000e+02,    4.03409e+00,    1.44853e+01,    2.95530e+01
   9.30000e+02,    4.04110e+00,    1.43730e+01,    2.95967e+01
   9.40000e+02,    4.04802e+00,    1.42631e+01,    2.96399e+01
   9.50000e+02,    4.05487e+00,    1.41556e+01,    2.96828e+01
   9.60000e+02,    4.06164e+00,    1.40504e+01,    2.97253e+01
   9.70000e+02,    4.06835e+00,    1.39475e+01,    2.97674e+01
   9.80000e+02,    4.07500e+00,    1.38467e+01,    2.98092e+01
   9.90000e+02,    4.08160e+00,    1.37480e+01,    2.98506e+01
   1.00000e+03,    4.08817e+00,    1.36514e+01,    2.98916e+01
   1.01000e+03,    4.09447e+00,    1.35567e+01,    2.99324e+01
   1.02000e+03,    4.10065e+00,    1.34640e+01,    2.99727e+01
   1.03000e+03,    4.10673e+00,    1.33731e+01,    3.00128e+01
   1.04000e+03,    4.11271e+00,    1.32841e+01,    3.00525e+01
   1.05000e+03,    4.11858e+00,    1.31967e+01,    3.00919e+01
   1.06000e+03,    4.12436e+00,    1.31111e+01,    3.01309e+01
   1.07000e+03,    4.13003e+00,    1.30272e+01,    3.01697e+01
   1.08000e+03,    4.13561e+00,    1.29448e+01,    3.02081e+01
   1.09000e+03,    4.14110e+00,    1.28640e+01,    3.02463e+01
   1.10000e+03,    4.14649e+00,    1.27847e+01,    3.02841e+01
   1.11000e+03,    4.15179e+00,    1.27069e+01,    3.03217e+01
   1.12000e+03,    4.15701e+00,    1.26306e+01,    3.03589e+01
   1.13000e+03,    4.16213e+00,    1.25556e+01,    3.03959e+01
   1.14000e+03,    4.16718e+00,    1.24820e+01,    3.04326e+01
   1.15000e+03,    4.17214e+00,    1.24097e+01,    3.04690e+01
   1.16000e+03,    4.17702e+00,    1.23387e+01,    3.05051e+01
   1.17000e+03,    4.18182e+00,    1.22690e+01,    3.05410e+01
   1.18000e+03,    4.18654e+00,    1.22005e+01,    3.05766e+01
   1.19000e+03,    4.19118e+00,    1.21332e+01,    3.06120e+01
   1.20000e+03,    4.19575e+00,    1.20670e+01,    3.06471e+01
   1.21000e+03,    4.20025e+00,    1.20020e+01,    3.06819e+01
   1.22000e+03,    4.20467e+00,    1.19380e+01,    3.07165e+01
   1.23000e+03,    4.20903e+00,    1.18752e+01,    3.07508e+01
   1.24000e+03,    4.21331e+00,    1.18134e+01,    3.07849e+01
   1.25000e+03,    4.21753e+00,    1.17526e+01,    3.08188e+01
   1.26000e+03,    4.22168e+00,    1.16928e+01,    3.08524e+01
   1.27000e+03,    4.22577e+00,    1.16340e+01,    3.08858e+01
   1.28000e+03,    4.22979e+00,    1.15761e+01,    3.09190e+01
   1.29000e+03,    4.23375e+00,    1.15192e+01,    3.09519e+01
   1.30000e+03,    4.23765e+00,    1.14632e+01,    3.09846e+01
   1.31000e+03,    4.24149e+00,    1.14080e+01,    3.10171e+01
   1.32000e+03,    4.24528e+00,    1.13537e+01,    3.10494e+01
   1.33000e+03,    4.24900e+00,    1.13003e+01,    3.10814e+01
   1.34000e+03,    4.25267e+00,    1.12477e+01,    3.11133e+01
   1.35000e+03,    4.25628e+00,    1.11959e+01,    3.11449e+01
   1.36000e+03,    4.25984e+00,    1.11449e+01,    3.11763e+01
   1.37000e+03,    4.26335e+00,    1.10946e+01,    3.12075e+01
   1.38000e+03,    4.26680e+00,    1.10452e+01,    3.12386e+01
   1.39000e+03,    4.27021e+00,    1.09964e+01,    3.12694e+01
   1.40000e+03,    4.27356e+00,    1.09484e+01,    3.13000e+01
   1.41000e+03,    4.27686e+00,    1.09010e+01,    3.13304e+01
   1.42000e+03,    4.28012e+00,    1.08544e+01,    3.13607e+01
   1.43000e+03,    4.28333e+00,    1.08084e+01,    3.13907e+01
   1.44000e+03,    4.28649e+00,    1.07631e+01,    3.14206e+01
   1.45000e+03,    4.28961e+00,    1.07185e+01,    3.14502e+01
   1.46000e+03,    4.29269e+00,    1.06745e+01,    3.14797e+01
   1.47000e+03,    4.29572e+00,    1.06311e+01,    3.15091e+01
   1.48000e+03,    4.29870e+00,    1.05883e+01,    3.15382e+01
   1.49000e+03,    4.30165e+00,    1.05461e+01,    3.15671e+01
   1.50000e+03,    4.30455e+00,    1.05044e+01,    3.15959e+01
   1.51000e+03,    4.30742e+00,    1.04634e+01,    3.16245e+01
   1.52000e+03,    4.31024e+00,    1.04229e+01,    3.16530e+01
   1.53000e+03,    4.31303e+00,    1.03830e+01,    3.16813e+01
   1.54000e+03,    4.31577e+00,    1.03436e+01,    3.17094e+01
   1.55000e+03,    4.31848e+00,    1.03047e+01,    3.17373e+01
   1.56000e+03,    4.32116e+00,    1.02663e+01,    3.17651e+01
   1.57000e+03,    4.32379e+00,    1.02285e+01,    3.17927e+01
   1.58000e+03,    4.32640e+00,    1.01911e+01,    3.18202e+01
   1.59000e+03,    4.32896e+00,    1.01542e+01,    3.18475e+01
   1.60000e+03,    4.33150e+00,    1.01178e+01,    3.18746e+01
   1.61000e+03,    4.33400e+00,    1.00819e+01,    3.19016e+01
   1.62000e+03,    4.33646e+00,    1.00464e+01,    3.19285e+01
   1.63000e+03,    4.33890e+00,    1.00114e+01,    3.19552e+01
   1.64000e+03,    4.34130e+00,    9.97680e+00,    3.19817e+01
   1.65000e+03,    4.34367e+00,    9.94266e+00,    3.20081e+01
   1.66000e+03,    4.34602e+00,    9.90893e+00,    3.20343e+01
   1.67000e+03,    4.34833e+00,    9.87563e+00,    3.20605e+01
   1.68000e+03,    4.35061e+00,    9.84274e+00,    3.20864e+01
   1.69000e+03,    4.35286e+00,    9.81024e+00,    3.21122e+01
   1.70000e+03,    4.35509e+00,    9.77815e+00,    3.21379e+01
   1.71000e+03,    4.35729e+00,    9.74644e+00,    3.21635e+01
   1.72000e+03,    4.35946e+00,    9.71512e+00,    3.21889e+01
   1.73000e+03,    4.36160e+00,    9.68416e+00,    3.22142e+01
   1.74000e+03,    4.36372e+00,    9.65358e+00,    3.22393e+01
   1.75000e+03,    4.36581e+00,    9.62336e+00,    3.22643e+01
   1.76000e+03,    4.36787e+00,    9.59349e+00,    3.22892e+01
   1.77000e+03,    4.36991e+00,    9.56398e+00,    3.23140e+01
   1.78000e+03,    4.37193e+00,    9.53480e+00,    3.23386e+01
   1.79000e+03,    4.37392e+00,    9.50596e+00,    3.23631e+01
   1.80000e+03,    4.37589e+00,    9.47746e+00,    3.23875e+01
   1.81000e+03,    4.37783e+00,    9.44928e+00,    3.24117e+01
   1.82000e+03,    4.37975e+00,    9.42142e+00,    3.24358e+01
   1.83000e+03,    4.38165e+00,    9.39387e+00,    3.24598e+01
   1.84000e+03,    4.38353e+00,    9.36664e+00,    3.24837e+01
   1.85000e+03,    4.38538e+00,    9.33971e+00,    3.25075e+01
   1.86000e+03,    4.38722e+00,    9.31308e+00,    3.25311e+01
   1.87000e+03,    4.38903e+00,    9.28674e+00,    3.25547e+01
   1.88000e+03,    4.39082e+00,    9.26069e+00,    3.25781e+01
   1.89000e+03,    4.39259e+00,    9.23493e+00,    3.26014e+01
   1.90000e+03,    4.39435e+00,    9.20945e+00,    3.26246e+01
   1.91000e+03,    4.39608e+00,    9.18424e+00,    3.26476e+01
   1.92000e+03,    4.39779e+00,    9.15931e+00,    3.26706e+01
   1.93000e+03,    4.39949e+00,    9.13464e+00,    3.26934e+01
   1.94000e+03,    4.40116e+00,    9.11024e+00,    3.27162e+01
   1.95000e+03,    4.40282e+00,    9.08609e+00,    3.27388e+01
   1.96000e+03,    4.40446e+00,    9.06220e+00,    3.27613e+01
   1.97000e+03,    4.40608e+00,    9.03856e+00,    3.27838e+01
   1.98000e+03,    4.40768e+00,    9.01517e+00,    3.28061e+01
   1.99000e+03,    4.40927e+00,    8.99202e+00,    3.28283e+01
   2.00000e+03,    4.41084e+00,    8.96911e+00,    3.28504e+01
   2.01000e+03,    4.41239e+00,    8.94644e+00,    3.28724e+01
   2.02000e+03,    4.41393e+00,    8.92400e+00,    3.28943e+01
   2.03000e+03,    4.41545e+00,    8.90178e+00,    3.29161e+01
   2.04000e+03,    4.41696e+00,    8.87980e+00,    3.29378e+01
   2.05000e+03,    4.41845e+00,    8.85803e+00,    3.29594e+01
   2.06000e+03,    4.41992e+00,    8.83648e+00,    3.29809e+01
   2.07000e+03,    4.42138e+00,    8.81515e+00,    3.30023e+01
   2.08000e+03,    4.42282e+00,    8.79403e+00,    3.30236e+01
   2.09000e+03,    4.42425e+00,    8.77312e+00,    3.30448e+01
   2.10000e+03,    4.42567e+00,    8.75241e+00,    3.30660e+01
   2.11000e+03,    4.42707e+00,    8.73191e+00,    3.30870e+01
   2.12000e+03,    4.42846e+00,    8.71161e+00,    3.31079e+01
   2.13000e+03,    4.42983e+00,    8.69150e+00,    3.31288e+01
   2.14000e+03,    4.43120e+00,    8.67159e+00,    3.31495e+01
   2.15000e+03,    4.43254e+00,    8.65187e+00,    3.31702e+01
   2.16000e+03,    4.43388e+00,    8.63234e+00,    3.31908e+01
   2.17000e+03,    4.43520e+00,    8.61300e+00,    3.32112e+01
   2.18000e+03,    4.43651e+00,    8.59383e+00,    3.32316e+01
   2.19000e+03,    4.43781e+00,    8.57485e+00,    3.32519e+01
   2.20000e+03,    4.43909e+00,    8.55605e+00,    3.32722e+01
   2.21000e+03,    4.44037e+00,    8.53743e+00,    3.32923e+01
   2.22000e+03,    4.44163e+00,    8.51897e+00,    3.33123e+01
   2.23000e+03,    4.44288e+00,    8.50069e+00,    3.33323e+01
   2.24000e+03,    4.44411e+00,    8.48258e+00,    3.33522e+01
   2.25000e+03,    4.44534e+00,    8.46463e+00,    3.33720e+01
   2.26000e+03,    4.44656e+00,    8.44685e+00,    3.33917e+01
   2.27000e+03,    4.44776e+00,    8.42923e+00,    3.34113e+01
   2.28000e+03,    4.44896e+00,    8.41177e+00,    3.34309e+01
   2.29000e+03,    4.45014e+00,    8.39447e+00,    3.34504e+01
   2.30000e+03,    4.45131e+00,    8.37732e+00,    3.34698e+01
   2.31000e+03,    4.45248e+00,    8.36033e+00,    3.34891e+01
   2.32000e+03,    4.45363e+00,    8.34349e+00,    3.35083e+01
   2.33000e+03,    4.45477e+00,    8.32680e+00,    3.35275e+01
   2.34000e+03,    4.45591e+00,    8.31025e+00,    3.35465e+01
   2.35000e+03,    4.45703e+00,    8.29385e+00,    3.35656e+01
   2.36000e+03,    4.45815e+00,    8.27760e+00,    3.35845e+01
   2.37000e+03,    4.45925e+00,    8.26148e+00,    3.36033e+01
   2.38000e+03,    4.46035e+00,    8.24551e+00,    3.36221e+01
   2.39000e+03,    4.46143e+00,    8.22968e+00,    3.36408e+01
   2.40000e+03,    4.46251e+00,    8.21398e+00,    3.36594e+01
   2.41000e+03,    4.46358e+00,    8.19841e+00,    3.36780e+01
   2.42000e+03,    4.46464e+00,    8.18298e+00,    3.36965e+01
   2.43000e+03,    4.46569e+00,    8.16768e+00,    3.37149e+01
   2.44000e+03,    4.46674e+00,    8.15251e+00,    3.37332e+01
   2.45000e+03,    4.46777e+00,    8.13747e+00,    3.37515e+01
   2.46000e+03,    4.46880e+00,    8.12255e+00,    3.37697e+01
   2.47000e+03,    4.46982e+00,    8.10776e+00,    3.37878e+01
   2.48000e+03,    4.47083e+00,    8.09310e+00,    3.38059e+01
   2.49000e+03,    4.47183e+00,    8.07855e+00,    3.38239e+01
   2.50000e+03,    4.47283e+00,    8.06413e+00,    3.38418e+01
   2.51000e+03,    4.47382e+00,    8.04982e+00,    3.38597e+01
   2.52000e+03,    4.47480e+00,    8.03563e+00,    3.38775e+01
   2.53000e+03,    4.47577e+00,    8.02156e+00,    3.38952e+01
   2.54000e+03,    4.47674e+00,    8.00760e+00,    3.39129e+01
   2.55000e+03,    4.47770e+00,    7.99376e+00,    3.39304e+01
   2.56000e+03,    4.47865e+00,    7.98002e+00,    3.39480e+01
   2.57000e+03,    4.47960e+00,    7.96640e+00,    3.39654e+01
   2.58000e+03,    4.48054e+00,    7.95289e+00,    3.39828e+01
   2.59000e+03,    4.48147e+00,    7.93948e+00,    3.40002e+01
   2.60000e+03,    4.48240e+00,    7.92619e+00,    3.40174e+01
   2.61000e+03,    4.48332e+00,    7.91299e+00,    3.40346e+01
   2.62000e+03,    4.48423e+00,    7.89990e+00,    3.40518e+01
   2.63000e+03,    4.48514e+00,    7.88692e+00,    3.40689e+01
   2.64000e+03,    4.48604e+00,    7.87404e+00,    3.40859e+01
   2.65000e+03,    4.48693e+00,    7.86125e+00,    3.41029e+01
   2.66000e+03,    4.48782e+00,    7.84857e+00,    3.41198e+01
   2.67000e+03,    4.48870e+00,    7.83598e+00,    3.41366e+01
   2.68000e+03,    4.48958e+00,    7.82349e+00,    3.41534e+01
   2.69000e+03,    4.49045e+00,    7.81110e+00,    3.41701e+01
   2.70000e+03,    4.49132e+00,    7.79881e+00,    3.41868e+01
   2.71000e+03,    4.49218e+00,    7.78660e+00,    3.42034e+01
   2.72000e+03,    4.49303e+00,    7.77449e+00,    3.42199e+01
   2.73000e+03,    4.49388e+00,    7.76247e+00,    3.42364e+01
   2.74000e+03,    4.49473e+00,    7.75055e+00,    3.42529e+01
   2.75000e+03,    4.49556e+00,    7.73871e+00,    3.42692e+01
   2.76000e+03,    4.49640e+00,    7.72696e+00,    3.42855e+01
   2.77000e+03,    4.49723e+00,    7.71530e+00,    3.43018e+01
   2.78000e+03,    4.49805e+00,    7.70372e+00,    3.43180e+01
   2.79000e+03,    4.49887e+00,    7.69224e+00,    3.43342e+01
   2.80000e+03,    4.49968e+00,    7.68083e+00,    3.43503e+01
   2.81000e+03,    4.50049e+00,    7.66951e+00,    3.43663e+01
   2.82000e+03,    4.50129e+00,    7.65828e+00,    3.43823e+01
   2.83000e+03,    4.50209e+00,    7.64712e+00,    3.43982e+01
   2.84000e+03,    4.50289e+00,    7.63605e+00,    3.44141e+01
   2.85000e+03,    4.50368e+00,    7.62506e+00,    3.44299e+01
   2.86000e+03,    4.50447e+00,    7.61414e+00,    3.44457e+01
   2.87000e+03,    4.50525e+00,    7.60331e+00,    3.44614e+01
   2.88000e+03,    4.50603e+00,    7.59256e+00,    3.44771e+01
   2.89000e+03,    4.50680e+00,    7.58188e+00,    3.44927e+01
   2.90000e+03,    4.50757e+00,    7.57127e+00,    3.45083e+01
   2.91000e+03,    4.50833e+00,    7.56075e+00,    3.45238e+01
   2.92000e+03,    4.50909e+00,    7.55030e+00,    3.45393e+01
   2.93000e+03,    4.50985e+00,    7.53992e+00,    3.45547e+01
   2.94000e+03,    4.51060e+00,    7.52961e+00,    3.45701e+01
   2.95000e+03,    4.51135e+00,    7.51938e+00,    3.45854e+01
   2.96000e+03,    4.51210e+00,    7.50922e+00,    3.46007e+01
   2.97000e+03,    4.51284e+00,    7.49913e+00,    3.46159e+01
   2.98000e+03,    4.51358e+00,    7.48911e+00,    3.46311e+01
   2.99000e+03,    4.51431e+00,    7.47916e+00,    3.46462e+01
   3.00000e+03,    4.51505e+00,    7.46928e+00,    3.46612e+01
   3.01000e+03,    4.51577e+00,    7.45946e+00,    3.46763e+01
   3.02000e+03,    4.51650e+00,    7.44972e+00,    3.46913e+01
   3.03000e+03,    4.51722e+00,    7.44004e+00,    3.47062e+01
   3.04000e+03,    4.51794e+00,    7.43042e+00,    3.47211e+01
   3.05000e+03,    4.51865e+00,    7.42088e+00,    3.47359e+01
   3.06000e+03,    4.51936e+00,    7.41139e+00,    3.47507e+01
   3.07000e+03,    4.52007e+00,    7.40197e+00,    3.47654e+01
   3.08000e+03,    4.52077e+00,    7.39262e+00,    3.47801e+01
   3.09000e+03,    4.52147e+00,    7.38333e+00,    3.47948e+01
   3.10000e+03,    4.52217e+00,    7.37409e+00,    3.48094e+01
   3.11000e+03,    4.52287e+00,    7.36493e+00,    3.48240e+01
   3.12000e+03,    4.52356e+00,    7.35582e+00,    3.48385e+01
   3.13000e+03,    4.52425e+00,    7.34677e+00,    3.48530e+01
   3.14000e+03,    4.52494e+00,    7.33778e+00,    3.48674e+01
   3.15000e+03,    4.52562e+00,    7.32885e+00,    3.48818e+01
   3.16000e+03,    4.52630e+00,    7.31998e+00,    3.48961e+01
   3.17000e+03,    4.52698e+00,    7.31117e+00,    3.49104e+01
   3.18000e+03,    4.52766e+00,    7.30242e+00,    3.49247e+01
   3.19000e+03,    4.52833e+00,    7.29372e+00,    3.49389e+01
   3.20000e+03,    4.52900e+00,    7.28508e+00,    3.49531e+01
   3.21000e+03,    4.52967e+00,    7.27649e+00,    3.49672e+01
   3.22000e+03,    4.53034e+00,    7.26796e+00,    3.49813e+01
   3.23000e+03,    4.53100e+00,    7.25949e+00,    3.49954e+01
   3.24000e+03,    4.53166e+00,    7.25107e+00,    3.50094e+01
   3.25000e+03,    4.53232e+00,    7.24270e+00,    3.50233e+01
   3.26000e+03,    4.53298e+00,    7.23439e+00,    3.50373e+01
   3.27000e+03,    4.53363e+00,    7.22613e+00,    3.50511e+01
   3.28000e+03,    4.53429e+00,    7.21792e+00,    3.50650e+01
   3.29000e+03,    4.53494e+00,    7.20977e+00,    3.50788e+01
   3.30000e+03,    4.53558e+00,    7.20166e+00,    3.50926e+01
   3.31000e+03,    4.53623e+00,    7.19361e+00,    3.51063e+01
   3.32000e+03,    4.53687e+00,    7.18561e+00,    3.51200e+01
   3.33000e+03,    4.53752e+00,    7.17765e+00,    3.51336e+01
   3.34000e+03,    4.53816e+00,    7.16975e+00,    3.51472e+01
   3.35000e+03,    4.53880e+00,    7.16189e+00,    3.51608e+01
   3.36000e+03,    4.53943e+00,    7.15409e+00,    3.51743e+01
   3.37000e+03,    4.54007e+00,    7.14633e+00,    3.51878e+01
   3.38000e+03,    4.54070e+00,    7.13862e+00,    3.52013e+01
   3.39000e+03,    4.54133e+00,    7.13096e+00,    3.52147e+01
   3.40000e+03,    4.54196e+00,    7.12334e+00,    3.52281e+01
   3.41000e+03,    4.54259e+00,    7.11577e+00,    3.52414e+01
   3.42000e+03,    4.54321e+00,    7.10825e+00,    3.52547e+01
   3.43000e+03,    4.54384e+00,    7.10077e+00,    3.52680e+01
   3.44000e+03,    4.54446e+00,    7.09334e+00,    3.52812e+01
   3.45000e+03,    4.54508e+00,    7.08595e+00,    3.52944e+01
   3.46000e+03,    4.54570e+00,    7.07861e+00,    3.53075e+01
   3.47000e+03,    4.54632e+00,    7.07131e+00,    3.53207e+01
   3.48000e+03,    4.54694e+00,    7.06406e+00,    3.53337e+01
   3.49000e+03,    4.54755e+00,    7.05685e+00,    3.53468e+01
   3.50000e+03,    4.54817e+00,    7.04968e+00,    3.53598e+01
   3.51000e+03,    4.54878e+00,    7.04255e+00,    3.53728e+01
   3.52000e+03,    4.54939e+00,    7.03547e+00,    3.53857e+01
   3.53000e+03,    4.55000e+00,    7.02843e+00,    3.53986e+01
   3.54000e+03,    4.55061e+00,    7.02143e+00,    3.54115e+01
   3.55000e+03,    4.55122e+00,    7.01447e+00,    3.54243e+01
   3.56000e+03,    4.55183e+00,    7.00755e+00,    3.54371e+01
   3.57000e+03,    4.55243e+00,    7.00067e+00,    3.54499e+01
   3.58000e+03,    4.55304e+00,    6.99383e+00,    3.54626e+01
   3.59000e+03,    4.55364e+00,    6.98703e+00,    3.54754e+01
   3.60000e+03,    4.55424e+00,    6.98028e+00,    3.54880e+01
   3.61000e+03,    4.55484e+00,    6.97356e+00,    3.55007e+01
   3.62000e+03,    4.55545e+00,    6.96688e+00,    3.55133e+01
   3.63000e+03,    4.55605e+00,    6.96023e+00,    3.55258e+01
   3.64000e+03,    4.55664e+00,    6.95363e+00,    3.55384e+01
   3.65000e+03,    4.55724e+00,    6.94706e+00,    3.55509e+01
   3.66000e+03,    4.55784e+00,    6.94053e+00,    3.55633e+01
   3.67000e+03,    4.55844e+00,    6.93404e+00,    3.55758e+01
   3.68000e+03,    4.55903e+00,    6.92759e+00,    3.55882e+01
   3.69000e+03,    4.55963e+00,    6.92117e+00,    3.56005e+01
   3.70000e+03,    4.56022e+00,    6.91479e+00,    3.56129e+01
   3.71000e+03,    4.56082e+00,    6.90844e+00,    3.56252e+01
   3.72000e+03,    4.56141e+00,    6.90213e+00,    3.56375e+01
   3.73000e+03,    4.56200e+00,    6.89586e+00,    3.56497e+01
   3.74000e+03,    4.56259e+00,    6.88962e+00,    3.56619e+01
   3.75000e+03,    4.56319e+00,    6.88341e+00,    3.56741e+01
   3.76000e+03,    4.56378e+00,    6.87724e+00,    3.56863e+01
   3.77000e+03,    4.56437e+00,    6.87111e+00,    3.56984e+01
   3.78000e+03,    4.56496e+00,    6.86501e+00,    3.57105e+01
   3.79000e+03,    4.56555e+00,    6.85894e+00,    3.57225e+01
   3.80000e+03,    4.56614e+00,    6.85290e+00,    3.57346e+01
   3.81000e+03,    4.56673e+00,    6.84690e+00,    3.57466e+01
   3.82000e+03,    4.56732e+00,    6.84093e+00,    3.57585e+01
   3.83000e+03,    4.56790e+00,    6.83500e+00,    3.57705e+01
   3.84000e+03,    4.56849e+00,    6.82910e+00,    3.57824e+01
   3.85000e+03,    4.56908e+00,    6.82322e+00,    3.57943e+01
   3.86000e+03,    4.56967e+00,    6.81739e+00,    3.58061e+01
   3.87000e+03,    4.57026e+00,    6.81158e+00,    3.58180e+01
   3.88000e+03,    4.57085e+00,    6.80580e+00,    3.58298e+01
   3.89000e+03,    4.57143e+00,    6.80006e+00,    3.58415e+01
   3.90000e+03,    4.57202e+00,    6.79434e+00,    3.58533e+01
   3.91000e+03,    4.57261e+00,    6.78866e+00,    3.58650e+01
   3.92000e+03,    4.57320e+00,    6.78301e+00,    3.58766e+01
   3.93000e+03,    4.57378e+00,    6.77739e+00,    3.58883e+01
   3.94000e+03,    4.57437e+00,    6.77179e+00,    3.58999e+01
   3.95000e+03,    4.57496e+00,    6.76623e+00,    3.59115e+01
   3.96000e+03,    4.57555e+00,    6.76070e+00,    3.59231e+01
   3.97000e+03,    4.57614e+00,    6.75520e+00,    3.59346e+01
   3.98000e+03,    4.57672e+00,    6.74972e+00,    3.59461e+01
   3.99000e+03,    4.57731e+00,    6.74428e+00,    3.59576e+01
   4.00000e+03,    4.57790e+00,    6.73886e+00,    3.59691e+01
   4.01000e+03,    4.57849e+00,    6.73347e+00,    3.59805e+01
   4.02000e+03,    4.57908e+00,    6.72811e+00,    3.59919e+01
   4.03000e+03,    4.57967e+00,    6.72278e+00,    3.60033e+01
   4.04000e+03,    4.58026e+00,    6.71748e+00,    3.60146e+01
   4.05000e+03,    4.58085e+00,    6.71220e+00,    3.60260e+01
   4.06000e+03,    4.58144e+00,    6.70695e+00,    3.60373e+01
   4.07000e+03,    4.58203e+00,    6.70173e+00,    3.60485e+01
   4.08000e+03,    4.58262e+00,    6.69653e+00,    3.60598e+01
   4.09000e+03,    4.58322e+00,    6.69137e+00,    3.60710e+01
   4.10000e+03,    4.58381e+00,    6.68623e+00,    3.60822e+01
   4.11000e+03,    4.58440e+00,    6.68111e+00,    3.60934e+01
   4.12000e+03,    4.58500e+00,    6.67602e+00,    3.61045e+01
   4.13000e+03,    4.58559e+00,    6.67096e+00,    3.61156e+01
   4.14000e+03,    4.58619e+00,    6.66592e+00,    3.61267e+01
   4.15000e+03,    4.58678e+00,    6.66091e+00,    3.61378e+01
   4.16000e+03,    4.58738e+00,    6.65593e+00,    3.61488e+01
   4.17000e+03,    4.58798e+00,    6.65097e+00,    3.61598e+01
   4.18000e+03,    4.58858e+00,    6.64603e+00,    3.61708e+01
   4.19000e+03,    4.58918e+00,    6.64112e+00,    3.61818e+01
   4.20000e+03,    4.58978e+00,    6.63624e+00,    3.61927e+01
   4.21000e+03,    4.59038e+00,    6.63138e+00,    3.62036e+01
   4.22000e+03,    4.59098e+00,    6.62654e+00,    3.62145e+01
   4.23000e+03,    4.59158e+00,    6.62173e+00,    3.62254e+01
   4.24000e+03,    4.59219e+00,    6.61694e+00,    3.62362e+01
   4.25000e+03,    4.59279e+00,    6.61218e+00,    3.62471e+01
   4.26000e+03,    4.59340e+00,    6.60744e+00,    3.62579e+01
   4.27000e+03,    4.59400e+00,    6.60272e+00,    3.62686e+01
   4.28000e+03,    4.59461e+00,    6.59803e+00,    3.62794e+01
   4.29000e+03,    4.59522e+00,    6.59336e+00,    3.62901e+01
   4.30000e+03,    4.59583e+00,    6.58872e+00,    3.63008e+01
   4.31000e+03,    4.59644e+00,    6.58409e+00,    3.63115e+01
   4.32000e+03,    4.59706e+00,    6.57949e+00,    3.63221e+01
   4.33000e+03,    4.59767e+00,    6.57492e+00,    3.63328e+01
   4.34000e+03,    4.59829e+00,    6.57036e+00,    3.63434e+01
   4.35000e+03,    4.59890e+00,    6.56583e+00,    3.63539e+01
   4.36000e+03,    4.59952e+00,    6.56132e+00,    3.63645e+01
   4.37000e+03,    4.60014e+00,    6.55683e+00,    3.63750e+01
   4.38000e+03,    4.60076e+00,    6.55236e+00,    3.63856e+01
   4.39000e+03,    4.60138e+00,    6.54792e+00,    3.63961e+01
   4.40000e+03,    4.60201e+00,    6.54349e+00,    3.64065e+01
   4.41000e+03,    4.60263e+00,    6.53909e+00,    3.64170e+01
   4.42000e+03,    4.60326e+00,    6.53471e+00,    3.64274e+01
   4.43000e+03,    4.60389e+00,    6.53035e+00,    3.64378e+01
   4.44000e+03,    4.60452e+00,    6.52601e+00,    3.64482e+01
   4.45000e+03,    4.60515e+00,    6.52170e+00,    3.64585e+01
   4.46000e+03,    4.60578e+00,    6.51740e+00,    3.64689e+01
   4.47000e+03,    4.60641e+00,    6.51312e+00,    3.64792e+01
   4.48000e+03,    4.60705e+00,    6.50887e+00,    3.64895e+01
   4.49000e+03,    4.60769e+00,    6.50463e+00,    3.64998e+01
   4.50000e+03,    4.60833e+00,    6.50042e+00,    3.65100e+01
   4.51000e+03,    4.60897e+00,    6.49623e+00,    3.65202e+01
   4.52000e+03,    4.60962e+00,    6.49205e+00,    3.65305e+01
   4.53000e+03,    4.61026e+00,    6.48790e+00,    3.65406e+01
   4.54000e+03,    4.61091e+00,    6.48376e+00,    3.65508e+01
   4.55000e+03,    4.61156e+00,    6.47965e+00,    3.65610e+01
   4.56000e+03,    4.61221e+00,    6.47555e+00,    3.65711e+01
   4.57000e+03,    4.61286e+00,    6.47147e+00,    3.65812e+01
   4.58000e+03,    4.61352e+00,    6.46742e+00,    3.65913e+01
   4.59000e+03,    4.61418e+00,    6.46338e+00,    3.66013e+01
   4.60000e+03,    4.61484e+00,    6.45936e+00,    3.66114e+01
   4.61000e+03,    4.61550e+00,    6.45536e+00,    3.66214e+01
   4.62000e+03,    4.61616e+00,    6.45138e+00,    3.66314e+01
   4.63000e+03,    4.61683e+00,    6.44741e+00,    3.66414e+01
   4.64000e+03,    4.61750e+00,    6.44347e+00,    3.66513e+01
   4.65000e+03,    4.61817e+00,    6.43954e+00,    3.66613e+01
   4.66000e+03,    4.61884e+00,    6.43563e+00,    3.66712e+01
   4.67000e+03,    4.61952e+00,    6.43174e+00,    3.66811e+01
   4.68000e+03,    4.62019e+00,    6.42787e+00,    3.66910e+01
   4.69000e+03,    4.62087e+00,    6.42402e+00,    3.67008e+01
   4.70000e+03,    4.62156e+00,    6.42018e+00,    3.67107e+01
   4.71000e+03,    4.62224e+00,    6.41637e+00,    3.67205e+01
   4.72000e+03,    4.62293e+00,    6.41257e+00,    3.67303e+01
   4.73000e+03,    4.62362e+00,    6.40878e+00,    3.67401e+01
   4.74000e+03,    4.62431e+00,    6.40502e+00,    3.67499e+01
   4.75000e+03,    4.62501e+00,    6.40127e+00,    3.67596e+01
   4.76000e+03,    4.62571e+00,    6.39754e+00,    3.67693e+01
   4.77000e+03,    4.62641e+00,    6.39382e+00,    3.67791e+01
   4.78000e+03,    4.62711e+00,    6.39013e+00,    3.67887e+01
   4.79000e+03,    4.62782e+00,    6.38645e+00,    3.67984e+01
   4.80000e+03,    4.62853e+00,    6.38278e+00,    3.68081e+01
   4.81000e+03,    4.62924e+00,    6.37914e+00,    3.68177e+01
   4.82000e+03,    4.62995e+00,    6.37551e+00,    3.68273e+01
   4.83000e+03,    4.63067e+00,    6.37190e+00,    3.68369e+01
   4.84000e+03,    4.63139e+00,    6.36830e+00,    3.68465e+01
   4.85000e+03,    4.63211e+00,    6.36472e+00,    3.68560e+01
   4.86000e+03,    4.63284e+00,    6.36115e+00,    3.68656e+01
   4.87000e+03,    4.63357e+00,    6.35761e+00,    3.68751e+01
   4.88000e+03,    4.63430e+00,    6.35407e+00,    3.68846e+01
   4.89000e+03,    4.63504e+00,    6.35056e+00,    3.68941e+01
   4.90000e+03,    4.63578e+00,    6.34706e+00,    3.69036e+01
   4.91000e+03,    4.63652e+00,    6.34357e+00,    3.69130e+01
   4.92000e+03,    4.63727e+00,    6.34010e+00,    3.69225e+01
   4.93000e+03,    4.63802e+00,    6.33665e+00,    3.69319e+01
   4.94000e+03,    4.63877e+00,    6.33321e+00,    3.69413e+01
   4.95000e+03,    4.63952e+00,    6.32979e+00,    3.69507e+01
   4.96000e+03,    4.64028e+00,    6.32638e+00,    3.69600e+01
   4.97000e+03,    4.64104e+00,    6.32299e+00,    3.69694e+01
   4.98000e+03,    4.64181e+00,    6.31961e+00,    3.69787e+01
   4.99000e+03,    4.64258e+00,    6.31625e+00,    3.69880e+01
   5.00000e+03,    4.64335e+00,    6.31291e+00,    3.69973e+01
   5.01000e+03,    4.64413e+00,    6.30957e+00,    3.70066e+01
   5.02000e+03,    4.64491e+00,    6.30626e+00,    3.70158e+01
   5.03000e+03,    4.64569e+00,    6.30296e+00,    3.70251e+01
   5.04000e+03,    4.64648e+00,    6.29967e+00,    3.70343e+01
   5.05000e+03,    4.64727e+00,    6.29640e+00,    3.70435e+01
   5.06000e+03,    4.64806e+00,    6.29314e+00,    3.70527e+01
   5.07000e+03,    4.64886e+00,    6.28989e+00,    3.70619e+01
   5.08000e+03,    4.64966e+00,    6.28666e+00,    3.70711e+01
   5.09000e+03,    4.65047e+00,    6.28345e+00,    3.70802e+01
   5.10000e+03,    4.65128e+00,    6.28025e+00,    3.70893e+01
   5.11000e+03,    4.65210e+00,    6.27706e+00,    3.70984e+01
   5.12000e+03,    4.65291e+00,    6.27389e+00,    3.71075e+01
   5.13000e+03,    4.65374e+00,    6.27073e+00,    3.71166e+01
   5.14000e+03,    4.65456e+00,    6.26758e+00,    3.71257e+01
   5.15000e+03,    4.65539e+00,    6.26445e+00,    3.71347e+01
   5.16000e+03,    4.65623e+00,    6.26133e+00,    3.71438e+01
   5.17000e+03,    4.65707e+00,    6.25823e+00,    3.71528e+01
   5.18000e+03,    4.65791e+00,    6.25514e+00,    3.71618e+01
   5.19000e+03,    4.65876e+00,    6.25206e+00,    3.71708e+01
   5.20000e+03,    4.65961e+00,    6.24900e+00,    3.71797e+01
   5.21000e+03,    4.66046e+00,    6.24595e+00,    3.71887e+01
   5.22000e+03,    4.66132e+00,    6.24291e+00,    3.71976e+01
   5.23000e+03,    4.66219e+00,    6.23989e+00,    3.72065e+01
   5.24000e+03,    4.66306e+00,    6.23688e+00,    3.72155e+01
   5.25000e+03,    4.66393e+00,    6.23388e+00,    3.72243e+01
   5.26000e+03,    4.66481e+00,    6.23090e+00,    3.72332e+01
   5.27000e+03,    4.66569e+00,    6.22793e+00,    3.72421e+01
   5.28000e+03,    4.66658e+00,    6.22497e+00,    3.72509e+01
   5.29000e+03,    4.66747e+00,    6.22203e+00,    3.72598e+01
   5.30000e+03,    4.66837e+00,    6.21909e+00,    3.72686e+01
   5.31000e+03,    4.66927e+00,    6.21617e+00,    3.72774e+01
   5.32000e+03,    4.67018e+00,    6.21327e+00,    3.72862e+01
   5.33000e+03,    4.67109e+00,    6.21037e+00,    3.72949e+01
   5.34000e+03,    4.67201e+00,    6.20749e+00,    3.73037e+01
   5.35000e+03,    4.67293e+00,    6.20462e+00,    3.73124e+01
   5.36000e+03,    4.67386e+00,    6.20177e+00,    3.73212e+01
   5.37000e+03,    4.67479e+00,    6.19892e+00,    3.73299e+01
   5.38000e+03,    4.67572e+00,    6.19609e+00,    3.73386e+01
   5.39000e+03,    4.67667e+00,    6.19327e+00,    3.73472e+01
   5.40000e+03,    4.67761e+00,    6.19046e+00,    3.73559e+01
   5.41000e+03,    4.67856e+00,    6.18767e+00,    3.73646e+01
   5.42000e+03,    4.67952e+00,    6.18488e+00,    3.73732e+01
   5.43000e+03,    4.68048e+00,    6.18211e+00,    3.73818e+01
   5.44000e+03,    4.68145e+00,    6.17935e+00,    3.73905e+01
   5.45000e+03,    4.68243e+00,    6.17660e+00,    3.73991e+01
   5.46000e+03,    4.68341e+00,    6.17387e+00,    3.74076e+01
   5.47000e+03,    4.68439e+00,    6.17114e+00,    3.74162e+01
   5.48000e+03,    4.68538e+00,    6.16843e+00,    3.74248e+01
   5.49000e+03,    4.68638e+00,    6.16573e+00,    3.74333e+01
   5.50000e+03,    4.68738e+00,    6.16304e+00,    3.74418e+01
   5.51000e+03,    4.68838e+00,    6.16037e+00,    3.74504e+01
   5.52000e+03,    4.68940e+00,    6.15770e+00,    3.74589e+01
   5.53000e+03,    4.69041e+00,    6.15505e+00,    3.74673e+01
   5.54000e+03,    4.69144e+00,    6.15240e+00,    3.74758e+01
   5.55000e+03,    4.69247e+00,    6.14977e+00,    3.74843e+01
   5.56000e+03,    4.69350e+00,    6.14715e+00,    3.74927e+01
   5.57000e+03,    4.69455e+00,    6.14454e+00,    3.75012e+01
   5.58000e+03,    4.69559e+00,    6.14194e+00,    3.75096e+01
   5.59000e+03,    4.69665e+00,    6.13936e+00,    3.75180e+01
   5.60000e+03,    4.69771e+00,    6.13678e+00,    3.75264e+01
   5.61000e+03,    4.69877e+00,    6.13422e+00,    3.75348e+01
   5.62000e+03,    4.69985e+00,    6.13167e+00,    3.75431e+01
   5.63000e+03,    4.70093e+00,    6.12912e+00,    3.75515e+01
   5.64000e+03,    4.70201e+00,    6.12659e+00,    3.75598e+01
   5.65000e+03,    4.70310e+00,    6.12407e+00,    3.75682e+01
   5.66000e+03,    4.70420e+00,    6.12156e+00,    3.75765e+01
   5.67000e+03,    4.70530e+00,    6.11906e+00,    3.75848e+01
   5.68000e+03,    4.70642e+00,    6.11658e+00,    3.75931e+01
   5.69000e+03,    4.70753e+00,    6.11410e+00,    3.76014e+01
   5.70000e+03,    4.70866e+00,    6.11163e+00,    3.76096e+01
   5.71000e+03,    4.70979e+00,    6.10918e+00,    3.76179e+01
   5.72000e+03,    4.71092e+00,    6.10673e+00,    3.76261e+01
   5.73000e+03,    4.71207e+00,    6.10429e+00,    3.76344e+01
   5.74000e+03,    4.71322e+00,    6.10187e+00,    3.76426e+01
   5.75000e+03,    4.71438e+00,    6.09946e+00,    3.76508e+01
   5.76000e+03,    4.71554e+00,    6.09705e+00,    3.76590e+01
   5.77000e+03,    4.71671e+00,    6.09466e+00,    3.76672e+01
   5.78000e+03,    4.71789e+00,    6.09228e+00,    3.76753e+01
   5.79000e+03,    4.71907e+00,    6.08990e+00,    3.76835e+01
   5.80000e+03,    4.72027e+00,    6.08754e+00,    3.76916e+01
   5.81000e+03,    4.72147e+00,    6.08519e+00,    3.76998e+01
   5.82000e+03,    4.72267e+00,    6.08285e+00,    3.77079e+01
   5.83000e+03,    4.72389e+00,    6.08051e+00,    3.77160e+01
   5.84000e+03,    4.72511e+00,    6.07819e+00,    3.77241e+01
   5.85000e+03,    4.72634e+00,    6.07588e+00,    3.77322e+01
   5.86000e+03,    4.72757e+00,    6.07358e+00,    3.77402e+01
   5.87000e+03,    4.72882e+00,    6.07129e+00,    3.77483e+01
   5.88000e+03,    4.73007e+00,    6.06900e+00,    3.77564e+01
   5.89000e+03,    4.73133e+00,    6.06673e+00,    3.77644e+01
   5.90000e+03,    4.73259e+00,    6.06447e+00,    3.77724e+01
   5.91000e+03,    4.73387e+00,    6.06222e+00,    3.77804e+01
   5.92000e+03,    4.73515e+00,    6.05998e+00,    3.77884e+01
   5.93000e+03,    4.73644e+00,    6.05774e+00,    3.77964e+01
   5.94000e+03,    4.73774e+00,    6.05552e+00,    3.78044e+01
   5.95000e+03,    4.73904e+00,    6.05331e+00,    3.78124e+01
   5.96000e+03,    4.74035e+00,    6.05110e+00,    3.78203e+01
   5.97000e+03,    4.74167e+00,    6.04891e+00,    3.78283e+01
   5.98000e+03,    4.74300e+00,    6.04672e+00,    3.78362e+01
   5.99000e+03,    4.74434e+00,    6.04455e+00,    3.78442e+01
   6.00000e+03,    4.74569e+00,    6.04238e+00,    3.78521e+01
   6.01000e+03,    4.74727e+00,    6.04022e+00,    3.78600e+01
   6.02000e+03,    4.74885e+00,    6.03808e+00,    3.78679e+01
   6.03000e+03,    4.75042e+00,    6.03594e+00,    3.78757e+01
   6.04000e+03,    4.75198e+00,    6.03381e+00,    3.78836e+01
   6.05000e+03,    4.75354e+00,    6.03170e+00,    3.78915e+01
   6.06000e+03,    4.75510e+00,    6.02959e+00,    3.78993e+01
   6.07000e+03,    4.75665e+00,    6.02749e+00,    3.79072e+01
   6.08000e+03,    4.75819e+00,    6.02540e+00,    3.79150e+01
   6.09000e+03,    4.75974e+00,    6.02332e+00,    3.79228e+01
   6.10000e+03,    4.76127e+00,    6.02125e+00,    3.79306e+01
   6.11000e+03,    4.76281e+00,    6.01919e+00,    3.79384e+01
   6.12000e+03,    4.76434e+00,    6.01714e+00,    3.79462e+01
   6.13000e+03,    4.76587e+00,    6.01510e+00,    3.79540e+01
   6.14000e+03,    4.76739e+00,    6.01306e+00,    3.79618e+01
   6.15000e+03,    4.76891e+00,    6.01104e+00,    3.79695e+01
   6.16000e+03,    4.77043e+00,    6.00902e+00,    3.79773e+01
   6.17000e+03,    4.77195e+00,    6.00702e+00,    3.79850e+01
   6.18000e+03,    4.77347e+00,    6.00502e+00,    3.79928e+01
   6.19000e+03,    4.77498e+00,    6.00303e+00,    3.80005e+01
   6.20000e+03,    4.77650e+00,    6.00105e+00,    3.80082e+01
   6.21000e+03,    4.77801e+00,    5.99908e+00,    3.80159e+01
   6.22000e+03,    4.77952e+00,    5.99712e+00,    3.80236e+01
   6.23000e+03,    4.78104e+00,    5.99517e+00,    3.80313e+01
   6.24000e+03,    4.78255e+00,    5.99322e+00,    3.80389e+01
   6.25000e+03,    4.78406e+00,    5.99129e+00,    3.80466e+01
   6.26000e+03,    4.78557e+00,    5.98936e+00,    3.80542e+01
   6.27000e+03,    4.78708e+00,    5.98744e+00,    3.80619e+01
   6.28000e+03,    4.78860e+00,    5.98553e+00,    3.80695e+01
   6.29000e+03,    4.79011e+00,    5.98363e+00,    3.80771e+01
   6.30000e+03,    4.79162e+00,    5.98174e+00,    3.80847e+01
   6.31000e+03,    4.79314e+00,    5.97985e+00,    3.80923e+01
   6.32000e+03,    4.79466e+00,    5.97797e+00,    3.80999e+01
   6.33000e+03,    4.79617e+00,    5.97611e+00,    3.81075e+01
   6.34000e+03,    4.79769e+00,    5.97425e+00,    3.81151e+01
   6.35000e+03,    4.79922e+00,    5.97239e+00,    3.81226e+01
   6.36000e+03,    4.80074e+00,    5.97055e+00,    3.81302e+01
   6.37000e+03,    4.80227e+00,    5.96872e+00,    3.81377e+01
   6.38000e+03,    4.80379e+00,    5.96689e+00,    3.81453e+01
   6.39000e+03,    4.80532e+00,    5.96507e+00,    3.81528e+01
   6.40000e+03,    4.80686e+00,    5.96326e+00,    3.81603e+01
   6.41000e+03,    4.80839e+00,    5.96146e+00,    3.81678e+01
   6.42000e+03,    4.80993e+00,    5.95966e+00,    3.81753e+01
   6.43000e+03,    4.81148e+00,    5.95787e+00,    3.81828e+01
   6.44000e+03,    4.81302e+00,    5.95609e+00,    3.81903e+01
   6.45000e+03,    4.81457e+00,    5.95432e+00,    3.81977e+01
   6.46000e+03,    4.81612e+00,    5.95256e+00,    3.82052e+01
   6.47000e+03,    4.81768e+00,    5.95081e+00,    3.82127e+01
   6.48000e+03,    4.81924e+00,    5.94906e+00,    3.82201e+01
   6.49000e+03,    4.82080e+00,    5.94732e+00,    3.82275e+01
   6.50000e+03,    4.82237e+00,    5.94559e+00,    3.82350e+01
   6.51000e+03,    4.82394e+00,    5.94386e+00,    3.82424e+01
   6.52000e+03,    4.82552e+00,    5.94215e+00,    3.82498e+01
   6.53000e+03,    4.82710e+00,    5.94044e+00,    3.82572e+01
   6.54000e+03,    4.82869e+00,    5.93874e+00,    3.82646e+01
   6.55000e+03,    4.83028e+00,    5.93704e+00,    3.82719e+01
   6.56000e+03,    4.83187e+00,    5.93536e+00,    3.82793e+01
   6.57000e+03,    4.83347e+00,    5.93368e+00,    3.82867e+01
   6.58000e+03,    4.83507e+00,    5.93201e+00,    3.82940e+01
   6.59000e+03,    4.83668e+00,    5.93034e+00,    3.83014e+01
   6.60000e+03,    4.83830e+00,    5.92869e+00,    3.83087e+01
   6.61000e+03,    4.83992e+00,    5.92704e+00,    3.83160e+01
   6.62000e+03,    4.84154e+00,    5.92540e+00,    3.83233e+01
   6.63000e+03,    4.84317e+00,    5.92377e+00,    3.83307e+01
   6.64000e+03,    4.84481e+00,    5.92214e+00,    3.83380e+01
   6.65000e+03,    4.84645e+00,    5.92052e+00,    3.83452e+01
   6.66000e+03,    4.84809e+00,    5.91891e+00,    3.83525e+01
   6.67000e+03,    4.84975e+00,    5.91730e+00,    3.83598e+01
   6.68000e+03,    4.85140e+00,    5.91571e+00,    3.83671e+01
   6.69000e+03,    4.85307e+00,    5.91412e+00,    3.83743e+01
   6.70000e+03,    4.85474e+00,    5.91254e+00,    3.83816e+01
   6.71000e+03,    4.85641e+00,    5.91096e+00,    3.83888e+01
   6.72000e+03,    4.85809e+00,    5.90939e+00,    3.83961e+01
   6.73000e+03,    4.85978e+00,    5.90783e+00,    3.84033e+01
   6.74000e+03,    4.86148e+00,    5.90628e+00,    3.84105e+01
   6.75000e+03,    4.86318e+00,    5.90473e+00,    3.84177e+01
   6.76000e+03,    4.86488e+00,    5.90319e+00,    3.84249e+01
   6.77000e+03,    4.86659e+00,    5.90166e+00,    3.84321e+01
   6.78000e+03,    4.86831e+00,    5.90013e+00,    3.84393e+01
   6.79000e+03,    4.87004e+00,    5.89862e+00,    3.84465e+01
   6.80000e+03,    4.87177e+00,    5.89710e+00,    3.84536e+01
   6.81000e+03,    4.87351e+00,    5.89560e+00,    3.84608e+01
   6.82000e+03,    4.87525e+00,    5.89410e+00,    3.84679e+01
   6.83000e+03,    4.87700e+00,    5.89261e+00,    3.84751e+01
   6.84000e+03,    4.87876e+00,    5.89113e+00,    3.84822e+01
   6.85000e+03,    4.88052e+00,    5.88965e+00,    3.84894e+01
   6.86000e+03,    4.88229e+00,    5.88818e+00,    3.84965e+01
   6.87000e+03,    4.88407e+00,    5.88672e+00,    3.85036e+01
   6.88000e+03,    4.88585e+00,    5.88526e+00,    3.85107e+01
   6.89000e+03,    4.88764e+00,    5.88381e+00,    3.85178e+01
   6.90000e+03,    4.88944e+00,    5.88237e+00,    3.85249e+01
   6.91000e+03,    4.89125e+00,    5.88094e+00,    3.85320e+01
   6.92000e+03,    4.89306e+00,    5.87951e+00,    3.85390e+01
   6.93000e+03,    4.89488e+00,    5.87808e+00,    3.85461e+01
   6.94000e+03,    4.89670e+00,    5.87667e+00,    3.85532e+01
   6.95000e+03,    4.89853e+00,    5.87526e+00,    3.85602e+01
   6.96000e+03,    4.90037e+00,    5.87386e+00,    3.85673e+01
   6.97000e+03,    4.90222e+00,    5.87246e+00,    3.85743e+01
   6.98000e+03,    4.90407e+00,    5.87107e+00,    3.85813e+01
   6.99000e+03,    4.90593e+00,    5.86969e+00,    3.85883e+01
   7.00000e+03,    4.90779e+00,    5.86832e+00,    3.85954e+01
   7.01000e+03,    4.90967e+00,    5.86695e+00,    3.86024e+01
   7.02000e+03,    4.91155e+00,    5.86559e+00,    3.86094e+01
   7.03000e+03,    4.91343e+00,    5.86423e+00,    3.86164e+01
   7.04000e+03,    4.91533e+00,    5.86288e+00,    3.86234e+01
   7.05000e+03,    4.91723e+00,    5.86154e+00,    3.86303e+01
   7.06000e+03,    4.91914e+00,    5.86020e+00,    3.86373e+01
   7.07000e+03,    4.92105e+00,    5.85887e+00,    3.86443e+01
   7.08000e+03,    4.92297e+00,    5.85755e+00,    3.86512e+01
   7.09000e+03,    4.92490e+00,    5.85623e+00,    3.86582e+01
   7.10000e+03,    4.92684e+00,    5.85492e+00,    3.86651e+01
   7.11000e+03,    4.92878e+00,    5.85362e+00,    3.86720e+01
   7.12000e+03,    4.93073e+00,    5.85232e+00,    3.86790e+01
   7.13000e+03,    4.93269e+00,    5.85103e+00,    3.86859e+01
   7.14000e+03,    4.93465e+00,    5.84974e+00,    3.86928e+01
   7.15000e+03,    4.93662e+00,    5.84847e+00,    3.86997e+01
   7.16000e+03,    4.93860e+00,    5.84719e+00,    3.87066e+01
   7.17000e+03,    4.94058e+00,    5.84593e+00,    3.87135e+01
   7.18000e+03,    4.94258e+00,    5.84467e+00,    3.87204e+01
   7.19000e+03,    4.94457e+00,    5.84342e+00,    3.87273e+01
   7.20000e+03,    4.94658e+00,    5.84217e+00,    3.87342e+01
   7.21000e+03,    4.94859e+00,    5.84093e+00,    3.87410e+01
   7.22000e+03,    4.95061e+00,    5.83969e+00,    3.87479e+01
   7.23000e+03,    4.95264e+00,    5.83846e+00,    3.87547e+01
   7.24000e+03,    4.95467e+00,    5.83724e+00,    3.87616e+01
   7.25000e+03,    4.95671e+00,    5.83603e+00,    3.87684e+01
   7.26000e+03,    4.95875e+00,    5.83482e+00,    3.87753e+01
   7.27000e+03,    4.96081e+00,    5.83361e+00,    3.87821e+01
   7.28000e+03,    4.96287e+00,    5.83242e+00,    3.87889e+01
   7.29000e+03,    4.96493e+00,    5.83122e+00,    3.87957e+01
   7.30000e+03,    4.96701e+00,    5.83004e+00,    3.88025e+01
   7.31000e+03,    4.96909e+00,    5.82886e+00,    3.88093e+01
   7.32000e+03,    4.97117e+00,    5.82769e+00,    3.88161e+01
   7.33000e+03,    4.97327e+00,    5.82652e+00,    3.88229e+01
   7.34000e+03,    4.97537e+00,    5.82536e+00,    3.88297e+01
   7.35000e+03,    4.97747e+00,    5.82420e+00,    3.88365e+01
   7.36000e+03,    4.97959e+00,    5.82305e+00,    3.88432e+01
   7.37000e+03,    4.98171e+00,    5.82191e+00,    3.88500e+01
   7.38000e+03,    4.98383e+00,    5.82077e+00,    3.88568e+01
   7.39000e+03,    4.98597e+00,    5.81964e+00,    3.88635e+01
   7.40000e+03,    4.98810e+00,    5.81852e+00,    3.88702e+01
   7.41000e+03,    4.99025e+00,    5.81740e+00,    3.88770e+01
   7.42000e+03,    4.99240e+00,    5.81629e+00,    3.88837e+01
   7.43000e+03,    4.99456e+00,    5.81518e+00,    3.88904e+01
   7.44000e+03,    4.99672e+00,    5.81408e+00,    3.88972e+01
   7.45000e+03,    4.99890e+00,    5.81298e+00,    3.89039e+01
   7.46000e+03,    5.00107e+00,    5.81189e+00,    3.89106e+01
   7.47000e+03,    5.00326e+00,    5.81081e+00,    3.89173e+01
   7.48000e+03,    5.00544e+00,    5.80973e+00,    3.89240e+01
   7.49000e+03,    5.00764e+00,    5.80866e+00,    3.89307e+01
   7.50000e+03,    5.00984e+00,    5.80759e+00,    3.89373e+01
   7.51000e+03,    5.01205e+00,    5.80653e+00,    3.89440e+01
   7.52000e+03,    5.01426e+00,    5.80547e+00,    3.89507e+01
   7.53000e+03,    5.01648e+00,    5.80443e+00,    3.89574e+01
   7.54000e+03,    5.01871e+00,    5.80338e+00,    3.89640e+01
   7.55000e+03,    5.02094e+00,    5.80234e+00,    3.89707e+01
   7.56000e+03,    5.02318e+00,    5.80131e+00,    3.89773e+01
   7.57000e+03,    5.02542e+00,    5.80029e+00,    3.89840e+01
   7.58000e+03,    5.02767e+00,    5.79926e+00,    3.89906e+01
   7.59000e+03,    5.02993e+00,    5.79825e+00,    3.89972e+01
   7.60000e+03,    5.03219e+00,    5.79724e+00,    3.90039e+01
   7.61000e+03,    5.03445e+00,    5.79624e+00,    3.90105e+01
   7.62000e+03,    5.03672e+00,    5.79524e+00,    3.90171e+01
   7.63000e+03,    5.03900e+00,    5.79425e+00,    3.90237e+01
   7.64000e+03,    5.04129e+00,    5.79326e+00,    3.90303e+01
   7.65000e+03,    5.04357e+00,    5.79228e+00,    3.90369e+01
   7.66000e+03,    5.04587e+00,    5.79130e+00,    3.90435e+01
   7.67000e+03,    5.04817e+00,    5.79033e+00,    3.90501e+01
   7.68000e+03,    5.05047e+00,    5.78937e+00,    3.90566e+01
   7.69000e+03,    5.05278e+00,    5.78841e+00,    3.90632e+01
   7.70000e+03,    5.05510e+00,    5.78745e+00,    3.90698e+01
   7.71000e+03,    5.05742e+00,    5.78650e+00,    3.90763e+01
   7.72000e+03,    5.05974e+00,    5.78556e+00,    3.90829e+01
   7.73000e+03,    5.06208e+00,    5.78462e+00,    3.90895e+01
   7.74000e+03,    5.06441e+00,    5.78369e+00,    3.90960e+01
   7.75000e+03,    5.06675e+00,    5.78277e+00,    3.91025e+01
   7.76000e+03,    5.06910e+00,    5.78184e+00,    3.91091e+01
   7.77000e+03,    5.07145e+00,    5.78093e+00,    3.91156e+01
   7.78000e+03,    5.07381e+00,    5.78002e+00,    3.91221e+01
   7.79000e+03,    5.07617e+00,    5.77911e+00,    3.91286e+01
   7.80000e+03,    5.07853e+00,    5.77821e+00,    3.91352e+01
   7.81000e+03,    5.08090e+00,    5.77732e+00,    3.91417e+01
   7.82000e+03,    5.08328e+00,    5.77643e+00,    3.91482e+01
   7.83000e+03,    5.08566e+00,    5.77555e+00,    3.91547e+01
   7.84000e+03,    5.08804e+00,    5.77467e+00,    3.91612e+01
   7.85000e+03,    5.09043e+00,    5.77379e+00,    3.91677e+01
   7.86000e+03,    5.09282e+00,    5.77293e+00,    3.91741e+01
   7.87000e+03,    5.09522e+00,    5.77206e+00,    3.91806e+01
   7.88000e+03,    5.09762e+00,    5.77121e+00,    3.91871e+01
   7.89000e+03,    5.10003e+00,    5.77035e+00,    3.91935e+01
   7.90000e+03,    5.10244e+00,    5.76951e+00,    3.92000e+01
   7.91000e+03,    5.10485e+00,    5.76867e+00,    3.92065e+01
   7.92000e+03,    5.10727e+00,    5.76783e+00,    3.92129e+01
   7.93000e+03,    5.10970e+00,    5.76700e+00,    3.92194e+01
   7.94000e+03,    5.11212e+00,    5.76617e+00,    3.92258e+01
   7.95000e+03,    5.11456e+00,    5.76535e+00,    3.92322e+01
   7.96000e+03,    5.11699e+00,    5.76453e+00,    3.92387e+01
   7.97000e+03,    5.11943e+00,    5.76372e+00,    3.92451e+01
   7.98000e+03,    5.12187e+00,    5.76292e+00,    3.92515e+01
   7.99000e+03,    5.12432e+00,    5.76212e+00,    3.92579e+01
   8.00000e+03,    5.12677e+00,    5.76132e+00,    3.92643e+01
   8.01000e+03,    5.12923e+00,    5.76053e+00,    3.92707e+01
   8.02000e+03,    5.13169e+00,    5.75974e+00,    3.92772e+01
   8.03000e+03,    5.13415e+00,    5.75896e+00,    3.92835e+01
   8.04000e+03,    5.13661e+00,    5.75819e+00,    3.92899e+01
   8.05000e+03,    5.13908e+00,    5.75742e+00,    3.92963e+01
   8.06000e+03,    5.14155e+00,    5.75665e+00,    3.93027e+01
   8.07000e+03,    5.14403e+00,    5.75589e+00,    3.93091e+01
   8.08000e+03,    5.14651e+00,    5.75514e+00,    3.93155e+01
   8.09000e+03,    5.14899e+00,    5.75438e+00,    3.93218e+01
   8.10000e+03,    5.15148e+00,    5.75364e+00,    3.93282e+01
   8.11000e+03,    5.15397e+00,    5.75290e+00,    3.93345e+01
   8.12000e+03,    5.15646e+00,    5.75216e+00,    3.93409e+01
   8.13000e+03,    5.15895e+00,    5.75143e+00,    3.93472e+01
   8.14000e+03,    5.16145e+00,    5.75070e+00,    3.93536e+01
   8.15000e+03,    5.16395e+00,    5.74998e+00,    3.93599e+01
   8.16000e+03,    5.16646e+00,    5.74927e+00,    3.93663e+01
   8.17000e+03,    5.16896e+00,    5.74855e+00,    3.93726e+01
   8.18000e+03,    5.17147e+00,    5.74785e+00,    3.93789e+01
   8.19000e+03,    5.17398e+00,    5.74714e+00,    3.93852e+01
   8.20000e+03,    5.17650e+00,    5.74645e+00,    3.93915e+01
   8.21000e+03,    5.17902e+00,    5.74575e+00,    3.93979e+01
   8.22000e+03,    5.18154e+00,    5.74507e+00,    3.94042e+01
   8.23000e+03,    5.18406e+00,    5.74438e+00,    3.94105e+01
   8.24000e+03,    5.18658e+00,    5.74371e+00,    3.94168e+01
   8.25000e+03,    5.18911e+00,    5.74303e+00,    3.94231e+01
   8.26000e+03,    5.19164e+00,    5.74236e+00,    3.94293e+01
   8.27000e+03,    5.19417e+00,    5.74170e+00,    3.94356e+01
   8.28000e+03,    5.19671e+00,    5.74104e+00,    3.94419e+01
   8.29000e+03,    5.19925e+00,    5.74038e+00,    3.94482e+01
   8.30000e+03,    5.20178e+00,    5.73973e+00,    3.94544e+01
   8.31000e+03,    5.20433e+00,    5.73909e+00,    3.94607e+01
   8.32000e+03,    5.20687e+00,    5.73845e+00,    3.94670e+01
   8.33000e+03,    5.20941e+00,    5.73781e+00,    3.94732e+01
   8.34000e+03,    5.21196e+00,    5.73718e+00,    3.94795e+01
   8.35000e+03,    5.21451e+00,    5.73655e+00,    3.94857e+01
   8.36000e+03,    5.21706e+00,    5.73593e+00,    3.94920e+01
   8.37000e+03,    5.21961e+00,    5.73531e+00,    3.94982e+01
   8.38000e+03,    5.22217e+00,    5.73469e+00,    3.95044e+01
   8.39000e+03,    5.22472e+00,    5.73408e+00,    3.95107e+01
   8.40000e+03,    5.22728e+00,    5.73348e+00,    3.95169e+01
   8.41000e+03,    5.22984e+00,    5.73288e+00,    3.95231e+01
   8.42000e+03,    5.23240e+00,    5.73228e+00,    3.95293e+01
   8.43000e+03,    5.23496e+00,    5.73169e+00,    3.95355e+01
   8.44000e+03,    5.23752e+00,    5.73111e+00,    3.95418e+01
   8.45000e+03,    5.24009e+00,    5.73052e+00,    3.95480e+01
   8.46000e+03,    5.24265e+00,    5.72994e+00,    3.95542e+01
   8.47000e+03,    5.24522e+00,    5.72937e+00,    3.95603e+01
   8.48000e+03,    5.24779e+00,    5.72880e+00,    3.95665e+01
   8.49000e+03,    5.25036e+00,    5.72824e+00,    3.95727e+01
   8.50000e+03,    5.25293e+00,    5.72768e+00,    3.95789e+01
   8.51000e+03,    5.25550e+00,    5.72712e+00,    3.95851e+01
   8.52000e+03,    5.25807e+00,    5.72657e+00,    3.95913e+01
   8.53000e+03,    5.26064e+00,    5.72602e+00,    3.95974e+01
   8.54000e+03,    5.26322e+00,    5.72548e+00,    3.96036e+01
   8.55000e+03,    5.26579e+00,    5.72494e+00,    3.96098e+01
   8.56000e+03,    5.26837e+00,    5.72440e+00,    3.96159e+01
   8.57000e+03,    5.27094e+00,    5.72387e+00,    3.96221e+01
   8.58000e+03,    5.27352e+00,    5.72334e+00,    3.96282e+01
   8.59000e+03,    5.27610e+00,    5.72282e+00,    3.96344e+01
   8.60000e+03,    5.27867e+00,    5.72230e+00,    3.96405e+01
   8.61000e+03,    5.28125e+00,    5.72179e+00,    3.96466e+01
   8.62000e+03,    5.28383e+00,    5.72128e+00,    3.96528e+01
   8.63000e+03,    5.28641e+00,    5.72078e+00,    3.96589e+01
   8.64000e+03,    5.28899e+00,    5.72027e+00,    3.96650e+01
   8.65000e+03,    5.29157e+00,    5.71978e+00,    3.96711e+01
   8.66000e+03,    5.29415e+00,    5.71928e+00,    3.96773e+01
   8.67000e+03,    5.29673e+00,    5.71880e+00,    3.96834e+01
   8.68000e+03,    5.29931e+00,    5.71831e+00,    3.96895e+01
   8.69000e+03,    5.30189e+00,    5.71783e+00,    3.96956e+01
   8.70000e+03,    5.30447e+00,    5.71735e+00,    3.97017e+01
   8.71000e+03,    5.30705e+00,    5.71688e+00,    3.97078e+01
   8.72000e+03,    5.30963e+00,    5.71641e+00,    3.97139e+01
   8.73000e+03,    5.31220e+00,    5.71595e+00,    3.97199e+01
   8.74000e+03,    5.31478e+00,    5.71549e+00,    3.97260e+01
   8.75000e+03,    5.31736e+00,    5.71503e+00,    3.97321e+01
   8.76000e+03,    5.31994e+00,    5.71458e+00,    3.97382e+01
   8.77000e+03,    5.32252e+00,    5.71413e+00,    3.97443e+01
   8.78000e+03,    5.32510e+00,    5.71369e+00,    3.97503e+01
   8.79000e+03,    5.32767e+00,    5.71325e+00,    3.97564e+01
   8.80000e+03,    5.33025e+00,    5.71281e+00,    3.97624e+01
   8.81000e+03,    5.33283e+00,    5.71238e+00,    3.97685e+01
   8.82000e+03,    5.33540e+00,    5.71195e+00,    3.97745e+01
   8.83000e+03,    5.33798e+00,    5.71152e+00,    3.97806e+01
   8.84000e+03,    5.34055e+00,    5.71110e+00,    3.97866e+01
   8.85000e+03,    5.34313e+00,    5.71068e+00,    3.97927e+01
   8.86000e+03,    5.34570e+00,    5.71027e+00,    3.97987e+01
   8.87000e+03,    5.34827e+00,    5.70986e+00,    3.98047e+01
   8.88000e+03,    5.35084e+00,    5.70945e+00,    3.98108e+01
   8.89000e+03,    5.35341e+00,    5.70905e+00,    3.98168e+01
   8.90000e+03,    5.35598e+00,    5.70865e+00,    3.98228e+01
   8.91000e+03,    5.35855e+00,    5.70826e+00,    3.98288e+01
   8.92000e+03,    5.36111e+00,    5.70787e+00,    3.98348e+01
   8.93000e+03,    5.36368e+00,    5.70748e+00,    3.98409e+01
   8.94000e+03,    5.36624e+00,    5.70710e+00,    3.98469e+01
   8.95000e+03,    5.36880e+00,    5.70672e+00,    3.98529e+01
   8.96000e+03,    5.37136e+00,    5.70634e+00,    3.98589e+01
   8.97000e+03,    5.37392e+00,    5.70597e+00,    3.98648e+01
   8.98000e+03,    5.37648e+00,    5.70560e+00,    3.98708e+01
   8.99000e+03,    5.37904e+00,    5.70524e+00,    3.98768e+01
   9.00000e+03,    5.38160e+00,    5.70488e+00,    3.98828e+01
   9.01000e+03,    5.38415e+00,    5.70452e+00,    3.98888e+01
   9.02000e+03,    5.38670e+00,    5.70417e+00,    3.98948e+01
   9.03000e+03,    5.38925e+00,    5.70382e+00,    3.99007e+01
   9.04000e+03,    5.39180e+00,    5.70347e+00,    3.99067e+01
   9.05000e+03,    5.39435e+00,    5.70313e+00,    3.99127e+01
   9.06000e+03,    5.39689e+00,    5.70279e+00,    3.99186e+01
   9.07000e+03,    5.39944e+00,    5.70245e+00,    3.99246e+01
   9.08000e+03,    5.40198e+00,    5.70212e+00,    3.99305e+01
   9.09000e+03,    5.40452e+00,    5.70179e+00,    3.99365e+01
   9.10000e+03,    5.40706e+00,    5.70147e+00,    3.99424e+01
   9.11000e+03,    5.40959e+00,    5.70114e+00,    3.99483e+01
   9.12000e+03,    5.41212e+00,    5.70083e+00,    3.99543e+01
   9.13000e+03,    5.41466e+00,    5.70051e+00,    3.99602e+01
   9.14000e+03,    5.41718e+00,    5.70020e+00,    3.99661e+01
   9.15000e+03,    5.41971e+00,    5.69989e+00,    3.99721e+01
   9.16000e+03,    5.42224e+00,    5.69959e+00,    3.99780e+01
   9.17000e+03,    5.42476e+00,    5.69929e+00,    3.99839e+01
   9.18000e+03,    5.42728e+00,    5.69899e+00,    3.99898e+01
   9.19000e+03,    5.42980e+00,    5.69869e+00,    3.99957e+01
   9.20000e+03,    5.43231e+00,    5.69840e+00,    4.00016e+01
   9.21000e+03,    5.43482e+00,    5.69812e+00,    4.00075e+01
   9.22000e+03,    5.43733e+00,    5.69783e+00,    4.00134e+01
   9.23000e+03,    5.43984e+00,    5.69755e+00,    4.00193e+01
   9.24000e+03,    5.44235e+00,    5.69727e+00,    4.00252e+01
   9.25000e+03,    5.44485e+00,    5.69700e+00,    4.00311e+01
   9.26000e+03,    5.44735e+00,    5.69673e+00,    4.00370e+01
   9.27000e+03,    5.44984e+00,    5.69646e+00,    4.00429e+01
   9.28000e+03,    5.45234e+00,    5.69620e+00,    4.00488e+01
   9.29000e+03,    5.45483e+00,    5.69593e+00,    4.00546e+01
   9.30000e+03,    5.45732e+00,    5.69568e+00,    4.00605e+01
   9.31000e+03,    5.45980e+00,    5.69542e+00,    4.00664e+01
   9.32000e+03,    5.46228e+00,    5.69517e+00,    4.00722e+01
   9.33000e+03,    5.46476e+00,    5.69492e+00,    4.00781e+01
   9.34000e+03,    5.46724e+00,    5.69468e+00,    4.00839e+01
   9.35000e+03,    5.46971e+00,    5.69444e+00,    4.00898e+01
   9.36000e+03,    5.47218e+00,    5.69420e+00,    4.00956e+01
   9.37000e+03,    5.47465e+00,    5.69396e+00,    4.01015e+01
   9.38000e+03,    5.47711e+00,    5.69373e+00,    4.01073e+01
   9.39000e+03,    5.47957e+00,    5.69350e+00,    4.01132e+01
   9.40000e+03,    5.48203e+00,    5.69327e+00,    4.01190e+01
   9.41000e+03,    5.48448e+00,    5.69305e+00,    4.01248e+01
   9.42000e+03,    5.48693e+00,    5.69283e+00,    4.01307e+01
   9.43000e+03,    5.48938e+00,    5.69261e+00,    4.01365e+01
   9.44000e+03,    5.49182e+00,    5.69240e+00,    4.01423e+01
   9.45000e+03,    5.49426e+00,    5.69219e+00,    4.01481e+01
   9.46000e+03,    5.49670e+00,    5.69198e+00,    4.01539e+01
   9.47000e+03,    5.49913e+00,    5.69177e+00,    4.01597e+01
   9.48000e+03,    5.50156e+00,    5.69157e+00,    4.01655e+01
   9.49000e+03,    5.50398e+00,    5.69137e+00,    4.01713e+01
   9.50000e+03,    5.50640e+00,    5.69118e+00,    4.01771e+01
   9.51000e+03,    5.50882e+00,    5.69098e+00,    4.01829e+01
   9.52000e+03,    5.51123e+00,    5.69079e+00,    4.01887e+01
   9.53000e+03,    5.51364e+00,    5.69061e+00,    4.01945e+01
   9.54000e+03,    5.51605e+00,    5.69042e+00,    4.02003e+01
   9.55000e+03,    5.51845e+00,    5.69024e+00,    4.02061e+01
   9.56000e+03,    5.52085e+00,    5.69006e+00,    4.02119e+01
   9.57000e+03,    5.52324e+00,    5.68989e+00,    4.02176e+01
   9.58000e+03,    5.52563e+00,    5.68972e+00,    4.02234e+01
   9.59000e+03,    5.52802e+00,    5.68955e+00,    4.02292e+01
   9.60000e+03,    5.53040e+00,    5.68938e+00,    4.02349e+01
   9.61000e+03,    5.53278e+00,    5.68921e+00,    4.02407e+01
   9.62000e+03,    5.53515e+00,    5.68905e+00,    4.02464e+01
   9.63000e+03,    5.53752e+00,    5.68889e+00,    4.02522e+01
   9.64000e+03,    5.53989e+00,    5.68874e+00,    4.02579e+01
   9.65000e+03,    5.54225e+00,    5.68859e+00,    4.02637e+01
   9.66000e+03,    5.54461e+00,    5.68844e+00,    4.02694e+01
   9.67000e+03,    5.54696e+00,    5.68829e+00,    4.02752e+01
   9.68000e+03,    5.54931e+00,    5.68814e+00,    4.02809e+01
   9.69000e+03,    5.55165e+00,    5.68800e+00,    4.02866e+01
   9.70000e+03,    5.55399e+00,    5.68786e+00,    4.02924e+01
   9.71000e+03,    5.55632e+00,    5.68772e+00,    4.02981e+01
   9.72000e+03,    5.55865e+00,    5.68759e+00,    4.03038e+01
   9.73000e+03,    5.56098e+00,    5.68746e+00,    4.03095e+01
   9.74000e+03,    5.56330e+00,    5.68733e+00,    4.03152e+01
   9.75000e+03,    5.56562e+00,    5.68720e+00,    4.03209e+01
   9.76000e+03,    5.56793e+00,    5.68708e+00,    4.03267e+01
   9.77000e+03,    5.57024e+00,    5.68696e+00,    4.03324e+01
   9.78000e+03,    5.57254e+00,    5.68684e+00,    4.03381e+01
   9.79000e+03,    5.57484e+00,    5.68673e+00,    4.03438e+01
   9.80000e+03,    5.57713e+00,    5.68661e+00,    4.03494e+01
   9.81000e+03,    5.57942e+00,    5.68650e+00,    4.03551e+01
   9.82000e+03,    5.58170e+00,    5.68640e+00,    4.03608e+01
   9.83000e+03,    5.58398e+00,    5.68629e+00,    4.03665e+01
   9.84000e+03,    5.58625e+00,    5.68619e+00,    4.03722e+01
   9.85000e+03,    5.58852e+00,    5.68609e+00,    4.03779e+01
   9.86000e+03,    5.59078e+00,    5.68599e+00,    4.03835e+01
   9.87000e+03,    5.59304e+00,    5.68589e+00,    4.03892e+01
   9.88000e+03,    5.59529e+00,    5.68580e+00,    4.03949e+01
   9.89000e+03,    5.59754e+00,    5.68571e+00,    4.04005e+01
   9.90000e+03,    5.59978e+00,    5.68562e+00,    4.04062e+01
   9.91000e+03,    5.60202e+00,    5.68554e+00,    4.04118e+01
   9.92000e+03,    5.60425e+00,    5.68545e+00,    4.04175e+01
   9.93000e+03,    5.60648e+00,    5.68537e+00,    4.04231e+01
   9.94000e+03,    5.60870e+00,    5.68530e+00,    4.04288e+01
   9.95000e+03,    5.61092e+00,    5.68522e+00,    4.04344e+01
   9.96000e+03,    5.61313e+00,    5.68515e+00,    4.04401e+01
   9.97000e+03,    5.61534e+00,    5.68507e+00,    4.04457e+01
   9.98000e+03,    5.61754e+00,    5.68501e+00,    4.04513e+01
   9.99000e+03,    5.61973e+00,    5.68494e+00,    4.04569e+01
   1.00000e+04,    5.62192e+00,    5.68488e+00,    4.04626e+01
   1.00100e+04,    5.62411e+00,    5.68481e+00,    4.04682e+01
   1.00200e+04,    5.62628e+00,    5.68475e+00,    4.04738e+01
   1.00300e+04,    5.62846e+00,    5.68470e+00,    4.04794e+01
   1.00400e+04,    5.63063e+00,    5.68464e+00,    4.04850e+01
   1.00500e+04,    5.63279e+00,    5.68459e+00,    4.04906e+01
   1.00600e+04,    5.63494e+00,    5.68454e+00,    4.04962e+01
   1.00700e+04,    5.63709e+00,    5.68449e+00,    4.05018e+01
   1.00800e+04,    5.63924e+00,    5.68444e+00,    4.05074e+01
   1.00900e+04,    5.64138e+00,    5.68440e+00,    4.05130e+01
   1.01000e+04,    5.64351e+00,    5.68436e+00,    4.05186e+01
   1.01100e+04,    5.64564e+00,    5.68432e+00,    4.05242e+01
   1.01200e+04,    5.64776e+00,    5.68428e+00,    4.05298e+01
   1.01300e+04,    5.64988e+00,    5.68425e+00,    4.05354e+01
   1.01400e+04,    5.65199e+00,    5.68422e+00,    4.05409e+01
   1.01500e+04,    5.65410e+00,    5.68418e+00,    4.05465e+01
   1.01600e+04,    5.65620e+00,    5.68416e+00,    4.05521e+01
   1.01700e+04,    5.65829e+00,    5.68413e+00,    4.05577e+01
   1.01800e+04,    5.66038e+00,    5.68410e+00,    4.05632e+01
   1.01900e+04,    5.66246e+00,    5.68408e+00,    4.05688e+01
   1.02000e+04,    5.66453e+00,    5.68406e+00,    4.05743e+01
   1.02100e+04,    5.66660e+00,    5.68404e+00,    4.05799e+01
   1.02200e+04,    5.66866e+00,    5.68403e+00,    4.05854e+01
   1.02300e+04,    5.67072e+00,    5.68401e+00,    4.05910e+01
   1.02400e+04,    5.67277e+00,    5.68400e+00,    4.05965e+01
   1.02500e+04,    5.67482e+00,    5.68399e+00,    4.06021e+01
   1.02600e+04,    5.67686e+00,    5.68398e+00,    4.06076e+01
   1.02700e+04,    5.67889e+00,    5.68398e+00,    4.06131e+01
   1.02800e+04,    5.68092e+00,    5.68397e+00,    4.06186e+01
   1.02900e+04,    5.68294e+00,    5.68397e+00,    4.06242e+01
   1.03000e+04,    5.68495e+00,    5.68397e+00,    4.06297e+01
   1.03100e+04,    5.68696e+00,    5.68397e+00,    4.06352e+01
   1.03200e+04,    5.68896e+00,    5.68398e+00,    4.06407e+01
   1.03300e+04,    5.69096e+00,    5.68398e+00,    4.06462e+01
   1.03400e+04,    5.69294e+00,    5.68399e+00,    4.06517e+01
   1.03500e+04,    5.69493e+00,    5.68400e+00,    4.06572e+01
   1.03600e+04,    5.69690e+00,    5.68401e+00,    4.06627e+01
   1.03700e+04,    5.69887e+00,    5.68403e+00,    4.06682e+01
   1.03800e+04,    5.70084e+00,    5.68404e+00,    4.06737e+01
   1.03900e+04,    5.70279e+00,    5.68406e+00,    4.06792e+01
   1.04000e+04,    5.70474e+00,    5.68408e+00,    4.06847e+01
   1.04100e+04,    5.70669e+00,    5.68410e+00,    4.06902e+01
   1.04200e+04,    5.70863e+00,    5.68412e+00,    4.06957e+01
   1.04300e+04,    5.71056e+00,    5.68415e+00,    4.07012e+01
   1.04400e+04,    5.71248e+00,    5.68417e+00,    4.07066e+01
   1.04500e+04,    5.71440e+00,    5.68420e+00,    4.07121e+01
   1.04600e+04,    5.71631e+00,    5.68423e+00,    4.07176e+01
   1.04700e+04,    5.71821e+00,    5.68426e+00,    4.07230e+01
   1.04800e+04,    5.72011e+00,    5.68429e+00,    4.07285e+01
   1.04900e+04,    5.72200e+00,    5.68433e+00,    4.07339e+01
   1.05000e+04,    5.72389e+00,    5.68437e+00,    4.07394e+01
   1.05100e+04,    5.72577e+00,    5.68440e+00,    4.07448e+01
   1.05200e+04,    5.72764e+00,    5.68444e+00,    4.07503e+01
   1.05300e+04,    5.72950e+00,    5.68449e+00,    4.07557e+01
   1.05400e+04,    5.73136e+00,    5.68453e+00,    4.07612e+01
   1.05500e+04,    5.73321e+00,    5.68458e+00,    4.07666e+01
   1.05600e+04,    5.73506e+00,    5.68462e+00,    4.07720e+01
   1.05700e+04,    5.73689e+00,    5.68467e+00,    4.07775e+01
   1.05800e+04,    5.73872e+00,    5.68472e+00,    4.07829e+01
   1.05900e+04,    5.74055e+00,    5.68477e+00,    4.07883e+01
   1.06000e+04,    5.74237e+00,    5.68483e+00,    4.07937e+01
   1.06100e+04,    5.74418e+00,    5.68488e+00,    4.07992e+01
   1.06200e+04,    5.74598e+00,    5.68494e+00,    4.08046e+01
   1.06300e+04,    5.74777e+00,    5.68500e+00,    4.08100e+01
   1.06400e+04,    5.74956e+00,    5.68506e+00,    4.08154e+01
   1.06500e+04,    5.75135e+00,    5.68512e+00,    4.08208e+01
   1.06600e+04,    5.75312e+00,    5.68518e+00,    4.08262e+01
   1.06700e+04,    5.75489e+00,    5.68525e+00,    4.08316e+01
   1.06800e+04,    5.75665e+00,    5.68531e+00,    4.08370e+01
   1.06900e+04,    5.75841e+00,    5.68538e+00,    4.08424e+01
   1.07000e+04,    5.76015e+00,    5.68545e+00,    4.08477e+01
   1.07100e+04,    5.76189e+00,    5.68552e+00,    4.08531e+01
   1.07200e+04,    5.76363e+00,    5.68559e+00,    4.08585e+01
   1.07300e+04,    5.76535e+00,    5.68566e+00,    4.08639e+01
   1.07400e+04,    5.76707e+00,    5.68574e+00,    4.08692e+01
   1.07500e+04,    5.76878e+00,    5.68582e+00,    4.08746e+01
   1.07600e+04,    5.77049e+00,    5.68589e+00,    4.08800e+01
   1.07700e+04,    5.77219e+00,    5.68597e+00,    4.08853e+01
   1.07800e+04,    5.77388e+00,    5.68605e+00,    4.08907e+01
   1.07900e+04,    5.77556e+00,    5.68614e+00,    4.08961e+01
   1.08000e+04,    5.77724e+00,    5.68622e+00,    4.09014e+01
   1.08100e+04,    5.77891e+00,    5.68630e+00,    4.09068e+01
   1.08200e+04,    5.78057e+00,    5.68639e+00,    4.09121e+01
   1.08300e+04,    5.78222e+00,    5.68648e+00,    4.09174e+01
   1.08400e+04,    5.78387e+00,    5.68657e+00,    4.09228e+01
   1.08500e+04,    5.78551e+00,    5.68666e+00,    4.09281e+01
   1.08600e+04,    5.78714e+00,    5.68675e+00,    4.09334e+01
   1.08700e+04,    5.78877e+00,    5.68684e+00,    4.09388e+01
   1.08800e+04,    5.79038e+00,    5.68694e+00,    4.09441e+01
   1.08900e+04,    5.79199e+00,    5.68703e+00,    4.09494e+01
   1.09000e+04,    5.79360e+00,    5.68713e+00,    4.09547e+01
   1.09100e+04,    5.79519e+00,    5.68723e+00,    4.09600e+01
   1.09200e+04,    5.79678e+00,    5.68733e+00,    4.09654e+01
   1.09300e+04,    5.79836e+00,    5.68743e+00,    4.09707e+01
   1.09400e+04,    5.79994e+00,    5.68753e+00,    4.09760e+01
   1.09500e+04,    5.80150e+00,    5.68763e+00,    4.09813e+01
   1.09600e+04,    5.80306e+00,    5.68774e+00,    4.09866e+01
   1.09700e+04,    5.80461e+00,    5.68784e+00,    4.09919e+01
   1.09800e+04,    5.80616e+00,    5.68795e+00,    4.09971e+01
   1.09900e+04,    5.80769e+00,    5.68806e+00,    4.10024e+01
   1.10000e+04,    5.80922e+00,    5.68817e+00,    4.10077e+01
   1.10100e+04,    5.81075e+00,    5.68828e+00,    4.10130e+01
   1.10200e+04,    5.81226e+00,    5.68839e+00,    4.10183e+01
   1.10300e+04,    5.81377e+00,    5.68850e+00,    4.10235e+01
   1.10400e+04,    5.81527e+00,    5.68862e+00,    4.10288e+01
   1.10500e+04,    5.81676e+00,    5.68873e+00,    4.10341e+01
   1.10600e+04,    5.81824e+00,    5.68885e+00,    4.10393e+01
   1.10700e+04,    5.81972e+00,    5.68897e+00,    4.10446e+01
   1.10800e+04,    5.82119e+00,    5.68909e+00,    4.10499e+01
   1.10900e+04,    5.82265e+00,    5.68921e+00,    4.10551e+01
   1.11000e+04,    5.82410e+00,    5.68933e+00,    4.10604e+01
   1.11100e+04,    5.82555e+00,    5.68945e+00,    4.10656e+01
   1.11200e+04,    5.82699e+00,    5.68957e+00,    4.10708e+01
   1.11300e+04,    5.82842e+00,    5.68970e+00,    4.10761e+01
   1.11400e+04,    5.82984e+00,    5.68982e+00,    4.10813e+01
   1.11500e+04,    5.83126e+00,    5.68995e+00,    4.10865e+01
   1.11600e+04,    5.83266e+00,    5.69008e+00,    4.10918e+01
   1.11700e+04,    5.83406e+00,    5.69020e+00,    4.10970e+01
   1.11800e+04,    5.83546e+00,    5.69033e+00,    4.11022e+01
   1.11900e+04,    5.83684e+00,    5.69046e+00,    4.11074e+01
   1.12000e+04,    5.83822e+00,    5.69059e+00,    4.11126e+01
   1.12100e+04,    5.83959e+00,    5.69073e+00,    4.11179e+01
   1.12200e+04,    5.84095e+00,    5.69086e+00,    4.11231e+01
   1.12300e+04,    5.84231e+00,    5.69099e+00,    4.11283e+01
   1.12400e+04,    5.84365e+00,    5.69113e+00,    4.11335e+01
   1.12500e+04,    5.84499e+00,    5.69127e+00,    4.11387e+01
   1.12600e+04,    5.84632e+00,    5.69140e+00,    4.11439e+01
   1.12700e+04,    5.84765e+00,    5.69154e+00,    4.11491e+01
   1.12800e+04,    5.84896e+00,    5.69168e+00,    4.11542e+01
   1.12900e+04,    5.85027e+00,    5.69182e+00,    4.11594e+01
   1.13000e+04,    5.85157e+00,    5.69196e+00,    4.11646e+01
   1.13100e+04,    5.85286e+00,    5.69210e+00,    4.11698e+01
   1.13200e+04,    5.85415e+00,    5.69224e+00,    4.11750e+01
   1.13300e+04,    5.85542e+00,    5.69239e+00,    4.11801e+01
   1.13400e+04,    5.85669e+00,    5.69253e+00,    4.11853e+01
   1.13500e+04,    5.85795e+00,    5.69268e+00,    4.11905e+01
   1.13600e+04,    5.85921e+00,    5.69282e+00,    4.11956e+01
   1.13700e+04,    5.86045e+00,    5.69297e+00,    4.12008e+01
   1.13800e+04,    5.86169e+00,    5.69312e+00,    4.12059e+01
   1.13900e+04,    5.86292e+00,    5.69327e+00,    4.12111e+01
   1.14000e+04,    5.86414e+00,    5.69342e+00,    4.12162e+01
   1.14100e+04,    5.86536e+00,    5.69357e+00,    4.12214e+01
   1.14200e+04,    5.86656e+00,    5.69372e+00,    4.12265e+01
   1.14300e+04,    5.86776e+00,    5.69387e+00,    4.12316e+01
   1.14400e+04,    5.86895e+00,    5.69402e+00,    4.12368e+01
   1.14500e+04,    5.87014e+00,    5.69418e+00,    4.12419e+01
   1.14600e+04,    5.87131e+00,    5.69433e+00,    4.12470e+01
   1.14700e+04,    5.87248e+00,    5.69448e+00,    4.12521e+01
   1.14800e+04,    5.87364e+00,    5.69464e+00,    4.12573e+01
   1.14900e+04,    5.87479e+00,    5.69480e+00,    4.12624e+01
   1.15000e+04,    5.87593e+00,    5.69495e+00,    4.12675e+01
   1.15100e+04,    5.87707e+00,    5.69511e+00,    4.12726e+01
   1.15200e+04,    5.87819e+00,    5.69527e+00,    4.12777e+01
   1.15300e+04,    5.87931e+00,    5.69543e+00,    4.12828e+01
   1.15400e+04,    5.88043e+00,    5.69559e+00,    4.12879e+01
   1.15500e+04,    5.88153e+00,    5.69575e+00,    4.12930e+01
   1.15600e+04,    5.88263e+00,    5.69591e+00,    4.12981e+01
   1.15700e+04,    5.88371e+00,    5.69607e+00,    4.13032e+01
   1.15800e+04,    5.88479e+00,    5.69623e+00,    4.13083e+01
   1.15900e+04,    5.88587e+00,    5.69640e+00,    4.13133e+01
   1.16000e+04,    5.88693e+00,    5.69656e+00,    4.13184e+01
   1.16100e+04,    5.88799e+00,    5.69673e+00,    4.13235e+01
   1.16200e+04,    5.88904e+00,    5.69689e+00,    4.13285e+01
   1.16300e+04,    5.89008e+00,    5.69706e+00,    4.13336e+01
   1.16400e+04,    5.89111e+00,    5.69722e+00,    4.13387e+01
   1.16500e+04,    5.89213e+00,    5.69739e+00,    4.13437e+01
   1.16600e+04,    5.89315e+00,    5.69756e+00,    4.13488e+01
   1.16700e+04,    5.89416e+00,    5.69772e+00,    4.13538e+01
   1.16800e+04,    5.89516e+00,    5.69789e+00,    4.13589e+01
   1.16900e+04,    5.89615e+00,    5.69806e+00,    4.13639e+01
   1.17000e+04,    5.89714e+00,    5.69823e+00,    4.13690e+01
   1.17100e+04,    5.89811e+00,    5.69840e+00,    4.13740e+01
   1.17200e+04,    5.89908e+00,    5.69857e+00,    4.13791e+01
   1.17300e+04,    5.90004e+00,    5.69874e+00,    4.13841e+01
   1.17400e+04,    5.90100e+00,    5.69892e+00,    4.13891e+01
   1.17500e+04,    5.90194e+00,    5.69909e+00,    4.13941e+01
   1.17600e+04,    5.90288e+00,    5.69926e+00,    4.13992e+01
   1.17700e+04,    5.90381e+00,    5.69944e+00,    4.14042e+01
   1.17800e+04,    5.90473e+00,    5.69961e+00,    4.14092e+01
   1.17900e+04,    5.90564e+00,    5.69978e+00,    4.14142e+01
   1.18000e+04,    5.90655e+00,    5.69996e+00,    4.14192e+01
   1.18100e+04,    5.90744e+00,    5.70013e+00,    4.14242e+01
   1.18200e+04,    5.90833e+00,    5.70031e+00,    4.14292e+01
   1.18300e+04,    5.90921e+00,    5.70049e+00,    4.14342e+01
   1.18400e+04,    5.91009e+00,    5.70066e+00,    4.14392e+01
   1.18500e+04,    5.91095e+00,    5.70084e+00,    4.14442e+01
   1.18600e+04,    5.91181e+00,    5.70102e+00,    4.14492e+01
   1.18700e+04,    5.91266e+00,    5.70119e+00,    4.14542e+01
   1.18800e+04,    5.91350e+00,    5.70137e+00,    4.14591e+01
   1.18900e+04,    5.91433e+00,    5.70155e+00,    4.14641e+01
   1.19000e+04,    5.91516e+00,    5.70173e+00,    4.14691e+01
   1.19100e+04,    5.91598e+00,    5.70191e+00,    4.14741e+01
   1.19200e+04,    5.91679e+00,    5.70209e+00,    4.14790e+01
   1.19300e+04,    5.91759e+00,    5.70227e+00,    4.14840e+01
   1.19400e+04,    5.91838e+00,    5.70245e+00,    4.14889e+01
   1.19500e+04,    5.91917e+00,    5.70263e+00,    4.14939e+01
   1.19600e+04,    5.91994e+00,    5.70281e+00,    4.14989e+01
   1.19700e+04,    5.92071e+00,    5.70300e+00,    4.15038e+01
   1.19800e+04,    5.92147e+00,    5.70318e+00,    4.15087e+01
   1.19900e+04,    5.92223e+00,    5.70336e+00,    4.15137e+01
   1.20000e+04,    5.92297e+00,    5.70354e+00,    4.15186e+01
   1.20100e+04,    5.92371e+00,    5.70373e+00,    4.15236e+01
   1.20200e+04,    5.92444e+00,    5.70391e+00,    4.15285e+01
   1.20300e+04,    5.92516e+00,    5.70409e+00,    4.15334e+01
   1.20400e+04,    5.92588e+00,    5.70428e+00,    4.15383e+01
   1.20500e+04,    5.92658e+00,    5.70446e+00,    4.15433e+01
   1.20600e+04,    5.92728e+00,    5.70465e+00,    4.15482e+01
   1.20700e+04,    5.92797e+00,    5.70483e+00,    4.15531e+01
   1.20800e+04,    5.92865e+00,    5.70502e+00,    4.15580e+01
   1.20900e+04,    5.92932e+00,    5.70520e+00,    4.15629e+01
   1.21000e+04,    5.92999e+00,    5.70539e+00,    4.15678e+01
   1.21100e+04,    5.93065e+00,    5.70557e+00,    4.15727e+01
   1.21200e+04,    5.93130e+00,    5.70576e+00,    4.15776e+01
   1.21300e+04,    5.93194e+00,    5.70594e+00,    4.15825e+01
   1.21400e+04,    5.93257e+00,    5.70613e+00,    4.15874e+01
   1.21500e+04,    5.93320e+00,    5.70632e+00,    4.15923e+01
   1.21600e+04,    5.93382e+00,    5.70650e+00,    4.15972e+01
   1.21700e+04,    5.93443e+00,    5.70669e+00,    4.16020e+01
   1.21800e+04,    5.93503e+00,    5.70688e+00,    4.16069e+01
   1.21900e+04,    5.93562e+00,    5.70707e+00,    4.16118e+01
   1.22000e+04,    5.93621e+00,    5.70725e+00,    4.16166e+01
   1.22100e+04,    5.93679e+00,    5.70744e+00,    4.16215e+01
   1.22200e+04,    5.93736e+00,    5.70763e+00,    4.16264e+01
   1.22300e+04,    5.93792e+00,    5.70782e+00,    4.16312e+01
   1.22400e+04,    5.93847e+00,    5.70800e+00,    4.16361e+01
   1.22500e+04,    5.93902e+00,    5.70819e+00,    4.16409e+01
   1.22600e+04,    5.93956e+00,    5.70838e+00,    4.16458e+01
   1.22700e+04,    5.94009e+00,    5.70857e+00,    4.16506e+01
   1.22800e+04,    5.94061e+00,    5.70876e+00,    4.16555e+01
   1.22900e+04,    5.94113e+00,    5.70895e+00,    4.16603e+01
   1.23000e+04,    5.94164e+00,    5.70914e+00,    4.16651e+01
   1.23100e+04,    5.94213e+00,    5.70933e+00,    4.16700e+01
   1.23200e+04,    5.94263e+00,    5.70952e+00,    4.16748e+01
   1.23300e+04,    5.94311e+00,    5.70970e+00,    4.16796e+01
   1.23400e+04,    5.94358e+00,    5.70989e+00,    4.16844e+01
   1.23500e+04,    5.94405e+00,    5.71008e+00,    4.16892e+01
   1.23600e+04,    5.94451e+00,    5.71027e+00,    4.16940e+01
   1.23700e+04,    5.94496e+00,    5.71046e+00,    4.16989e+01
   1.23800e+04,    5.94541e+00,    5.71065e+00,    4.17037e+01
   1.23900e+04,    5.94584e+00,    5.71084e+00,    4.17085e+01
   1.24000e+04,    5.94627e+00,    5.71103e+00,    4.17133e+01
   1.24100e+04,    5.94669e+00,    5.71122e+00,    4.17180e+01
   1.24200e+04,    5.94710e+00,    5.71141e+00,    4.17228e+01
   1.24300e+04,    5.94751e+00,    5.71160e+00,    4.17276e+01
   1.24400e+04,    5.94791e+00,    5.71179e+00,    4.17324e+01
   1.24500e+04,    5.94830e+00,    5.71198e+00,    4.17372e+01
   1.24600e+04,    5.94868e+00,    5.71217e+00,    4.17420e+01
   1.24700e+04,    5.94905e+00,    5.71236e+00,    4.17467e+01
   1.24800e+04,    5.94942e+00,    5.71255e+00,    4.17515e+01
   1.24900e+04,    5.94977e+00,    5.71274e+00,    4.17563e+01
   1.25000e+04,    5.95012e+00,    5.71293e+00,    4.17610e+01
   1.25100e+04,    5.95046e+00,    5.71312e+00,    4.17658e+01
   1.25200e+04,    5.95080e+00,    5.71331e+00,    4.17705e+01
   1.25300e+04,    5.95113e+00,    5.71350e+00,    4.17753e+01
   1.25400e+04,    5.95144e+00,    5.71369e+00,    4.17800e+01
   1.25500e+04,    5.95176e+00,    5.71388e+00,    4.17848e+01
   1.25600e+04,    5.95206e+00,    5.71407e+00,    4.17895e+01
   1.25700e+04,    5.95235e+00,    5.71426e+00,    4.17943e+01
   1.25800e+04,    5.95264e+00,    5.71445e+00,    4.17990e+01
   1.25900e+04,    5.95292e+00,    5.71463e+00,    4.18037e+01
   1.26000e+04,    5.95319e+00,    5.71482e+00,    4.18085e+01
   1.26100e+04,    5.95346e+00,    5.71501e+00,    4.18132e+01
   1.26200e+04,    5.95372e+00,    5.71520e+00,    4.18179e+01
   1.26300e+04,    5.95396e+00,    5.71539e+00,    4.18226e+01
   1.26400e+04,    5.95421e+00,    5.71558e+00,    4.18273e+01
   1.26500e+04,    5.95444e+00,    5.71577e+00,    4.18320e+01
   1.26600e+04,    5.95467e+00,    5.71596e+00,    4.18367e+01
   1.26700e+04,    5.95488e+00,    5.71615e+00,    4.18414e+01
   1.26800e+04,    5.95509e+00,    5.71633e+00,    4.18461e+01
   1.26900e+04,    5.95530e+00,    5.71652e+00,    4.18508e+01
   1.27000e+04,    5.95549e+00,    5.71671e+00,    4.18555e+01
   1.27100e+04,    5.95568e+00,    5.71690e+00,    4.18602e+01
   1.27200e+04,    5.95586e+00,    5.71709e+00,    4.18649e+01
   1.27300e+04,    5.95603e+00,    5.71727e+00,    4.18696e+01
   1.27400e+04,    5.95620e+00,    5.71746e+00,    4.18743e+01
   1.27500e+04,    5.95635e+00,    5.71765e+00,    4.18789e+01
   1.27600e+04,    5.95650e+00,    5.71784e+00,    4.18836e+01
   1.27700e+04,    5.95664e+00,    5.71802e+00,    4.18883e+01
   1.27800e+04,    5.95678e+00,    5.71821e+00,    4.18929e+01
   1.27900e+04,    5.95690e+00,    5.71840e+00,    4.18976e+01
   1.28000e+04,    5.95702e+00,    5.71858e+00,    4.19022e+01
   1.28100e+04,    5.95714e+00,    5.71877e+00,    4.19069e+01
   1.28200e+04,    5.95724e+00,    5.71895e+00,    4.19115e+01
   1.28300e+04,    5.95733e+00,    5.71914e+00,    4.19162e+01
   1.28400e+04,    5.95742e+00,    5.71933e+00,    4.19208e+01
   1.28500e+04,    5.95750e+00,    5.71951e+00,    4.19255e+01
   1.28600e+04,    5.95758e+00,    5.71970e+00,    4.19301e+01
   1.28700e+04,    5.95764e+00,    5.71988e+00,    4.19347e+01
   1.28800e+04,    5.95770e+00,    5.72007e+00,    4.19394e+01
   1.28900e+04,    5.95775e+00,    5.72025e+00,    4.19440e+01
   1.29000e+04,    5.95780e+00,    5.72043e+00,    4.19486e+01
   1.29100e+04,    5.95783e+00,    5.72062e+00,    4.19532e+01
   1.29200e+04,    5.95786e+00,    5.72080e+00,    4.19578e+01
   1.29300e+04,    5.95788e+00,    5.72099e+00,    4.19624e+01
   1.29400e+04,    5.95790e+00,    5.72117e+00,    4.19671e+01
   1.29500e+04,    5.95790e+00,    5.72135e+00,    4.19717e+01
   1.29600e+04,    5.95790e+00,    5.72153e+00,    4.19763e+01
   1.29700e+04,    5.95789e+00,    5.72172e+00,    4.19808e+01
   1.29800e+04,    5.95787e+00,    5.72190e+00,    4.19854e+01
   1.29900e+04,    5.95785e+00,    5.72208e+00,    4.19900e+01
   1.30000e+04,    5.95782e+00,    5.72226e+00,    4.19946e+01
   1.30100e+04,    5.95778e+00,    5.72244e+00,    4.19992e+01
   1.30200e+04,    5.95774e+00,    5.72262e+00,    4.20038e+01
   1.30300e+04,    5.95768e+00,    5.72280e+00,    4.20083e+01
   1.30400e+04,    5.95762e+00,    5.72298e+00,    4.20129e+01
   1.30500e+04,    5.95755e+00,    5.72316e+00,    4.20175e+01
   1.30600e+04,    5.95748e+00,    5.72334e+00,    4.20220e+01
   1.30700e+04,    5.95740e+00,    5.72352e+00,    4.20266e+01
   1.30800e+04,    5.95730e+00,    5.72370e+00,    4.20312e+01
   1.30900e+04,    5.95721e+00,    5.72388e+00,    4.20357e+01
   1.31000e+04,    5.95710e+00,    5.72406e+00,    4.20403e+01
   1.31100e+04,    5.95699e+00,    5.72423e+00,    4.20448e+01
   1.31200e+04,    5.95687e+00,    5.72441e+00,    4.20494e+01
   1.31300e+04,    5.95674e+00,    5.72459e+00,    4.20539e+01
   1.31400e+04,    5.95661e+00,    5.72477e+00,    4.20584e+01
   1.31500e+04,    5.95647e+00,    5.72494e+00,    4.20630e+01
   1.31600e+04,    5.95632e+00,    5.72512e+00,    4.20675e+01
   1.31700e+04,    5.95617e+00,    5.72529e+00,    4.20720e+01
   1.31800e+04,    5.95600e+00,    5.72547e+00,    4.20765e+01
   1.31900e+04,    5.95583e+00,    5.72564e+00,    4.20810e+01
   1.32000e+04,    5.95565e+00,    5.72582e+00,    4.20856e+01
   1.32100e+04,    5.95547e+00,    5.72599e+00,    4.20901e+01
   1.32200e+04,    5.95528e+00,    5.72616e+00,    4.20946e+01
   1.32300e+04,    5.95508e+00,    5.72634e+00,    4.20991e+01
   1.32400e+04,    5.95487e+00,    5.72651e+00,    4.21036e+01
   1.32500e+04,    5.95466e+00,    5.72668e+00,    4.21081e+01
   1.32600e+04,    5.95444e+00,    5.72685e+00,    4.21126e+01
   1.32700e+04,    5.95421e+00,    5.72703e+00,    4.21171e+01
   1.32800e+04,    5.95398e+00,    5.72720e+00,    4.21215e+01
   1.32900e+04,    5.95374e+00,    5.72737e+00,    4.21260e+01
   1.33000e+04,    5.95349e+00,    5.72754e+00,    4.21305e+01
   1.33100e+04,    5.95323e+00,    5.72771e+00,    4.21350e+01
   1.33200e+04,    5.95297e+00,    5.72788e+00,    4.21394e+01
   1.33300e+04,    5.95270e+00,    5.72805e+00,    4.21439e+01
   1.33400e+04,    5.95242e+00,    5.72821e+00,    4.21484e+01
   1.33500e+04,    5.95214e+00,    5.72838e+00,    4.21528e+01
   1.33600e+04,    5.95185e+00,    5.72855e+00,    4.21573e+01
   1.33700e+04,    5.95155e+00,    5.72872e+00,    4.21617e+01
   1.33800e+04,    5.95124e+00,    5.72888e+00,    4.21662e+01
   1.33900e+04,    5.95093e+00,    5.72905e+00,    4.21706e+01
   1.34000e+04,    5.95061e+00,    5.72921e+00,    4.21751e+01
   1.34100e+04,    5.95028e+00,    5.72938e+00,    4.21795e+01
   1.34200e+04,    5.94995e+00,    5.72954e+00,    4.21840e+01
   1.34300e+04,    5.94961e+00,    5.72971e+00,    4.21884e+01
   1.34400e+04,    5.94926e+00,    5.72987e+00,    4.21928e+01
   1.34500e+04,    5.94891e+00,    5.73003e+00,    4.21972e+01
   1.34600e+04,    5.94855e+00,    5.73020e+00,    4.22017e+01
   1.34700e+04,    5.94818e+00,    5.73036e+00,    4.22061e+01
   1.34800e+04,    5.94781e+00,    5.73052e+00,    4.22105e+01
   1.34900e+04,    5.94742e+00,    5.73068e+00,    4.22149e+01
   1.35000e+04,    5.94704e+00,    5.73084e+00,    4.22193e+01
   1.35100e+04,    5.94664e+00,    5.73100e+00,    4.22237e+01
   1.35200e+04,    5.94624e+00,    5.73116e+00,    4.22281e+01
   1.35300e+04,    5.94583e+00,    5.73132e+00,    4.22325e+01
   1.35400e+04,    5.94541e+00,    5.73148e+00,    4.22369e+01
   1.35500e+04,    5.94499e+00,    5.73163e+00,    4.22413e+01
   1.35600e+04,    5.94456e+00,    5.73179e+00,    4.22457e+01
   1.35700e+04,    5.94413e+00,    5.73195e+00,    4.22501e+01
   1.35800e+04,    5.94368e+00,    5.73210e+00,    4.22544e+01
   1.35900e+04,    5.94323e+00,    5.73226e+00,    4.22588e+01
   1.36000e+04,    5.94278e+00,    5.73242e+00,    4.22632e+01
   1.36100e+04,    5.94231e+00,    5.73257e+00,    4.22676e+01
   1.36200e+04,    5.94184e+00,    5.73272e+00,    4.22719e+01
   1.36300e+04,    5.94137e+00,    5.73288e+00,    4.22763e+01
   1.36400e+04,    5.94088e+00,    5.73303e+00,    4.22806e+01
   1.36500e+04,    5.94039e+00,    5.73318e+00,    4.22850e+01
   1.36600e+04,    5.93990e+00,    5.73333e+00,    4.22893e+01
   1.36700e+04,    5.93939e+00,    5.73348e+00,    4.22937e+01
   1.36800e+04,    5.93888e+00,    5.73363e+00,    4.22980e+01
   1.36900e+04,    5.93837e+00,    5.73378e+00,    4.23024e+01
   1.37000e+04,    5.93785e+00,    5.73393e+00,    4.23067e+01
   1.37100e+04,    5.93732e+00,    5.73408e+00,    4.23110e+01
   1.37200e+04,    5.93678e+00,    5.73423e+00,    4.23154e+01
   1.37300e+04,    5.93624e+00,    5.73438e+00,    4.23197e+01
   1.37400e+04,    5.93569e+00,    5.73452e+00,    4.23240e+01
   1.37500e+04,    5.93513e+00,    5.73467e+00,    4.23283e+01
   1.37600e+04,    5.93457e+00,    5.73482e+00,    4.23327e+01
   1.37700e+04,    5.93400e+00,    5.73496e+00,    4.23370e+01
   1.37800e+04,    5.93342e+00,    5.73510e+00,    4.23413e+01
   1.37900e+04,    5.93284e+00,    5.73525e+00,    4.23456e+01
   1.38000e+04,    5.93225e+00,    5.73539e+00,    4.23499e+01
   1.38100e+04,    5.93166e+00,    5.73553e+00,    4.23542e+01
   1.38200e+04,    5.93106e+00,    5.73567e+00,    4.23585e+01
   1.38300e+04,    5.93045e+00,    5.73582e+00,    4.23628e+01
   1.38400e+04,    5.92984e+00,    5.73596e+00,    4.23670e+01
   1.38500e+04,    5.92922e+00,    5.73610e+00,    4.23713e+01
   1.38600e+04,    5.92859e+00,    5.73624e+00,    4.23756e+01
   1.38700e+04,    5.92796e+00,    5.73637e+00,    4.23799e+01
   1.38800e+04,    5.92732e+00,    5.73651e+00,    4.23842e+01
   1.38900e+04,    5.92667e+00,    5.73665e+00,    4.23884e+01
   1.39000e+04,    5.92602e+00,    5.73679e+00,    4.23927e+01
   1.39100e+04,    5.92536e+00,    5.73692e+00,    4.23969e+01
   1.39200e+04,    5.92469e+00,    5.73706e+00,    4.24012e+01
   1.39300e+04,    5.92402e+00,    5.73719e+00,    4.24055e+01
   1.39400e+04,    5.92335e+00,    5.73732e+00,    4.24097e+01
   1.39500e+04,    5.92266e+00,    5.73746e+00,    4.24140e+01
   1.39600e+04,    5.92197e+00,    5.73759e+00,    4.24182e+01
   1.39700e+04,    5.92128e+00,    5.73772e+00,    4.24224e+01
   1.39800e+04,    5.92057e+00,    5.73785e+00,    4.24267e+01
   1.39900e+04,    5.91986e+00,    5.73798e+00,    4.24309e+01
   1.40000e+04,    5.91915e+00,    5.73811e+00,    4.24351e+01
   1.40100e+04,    5.91843e+00,    5.73824e+00,    4.24394e+01
   1.40200e+04,    5.91770e+00,    5.73837e+00,    4.24436e+01
   1.40300e+04,    5.91697e+00,    5.73850e+00,    4.24478e+01
   1.40400e+04,    5.91623e+00,    5.73862e+00,    4.24520e+01
   1.40500e+04,    5.91548e+00,    5.73875e+00,    4.24562e+01
   1.40600e+04,    5.91473e+00,    5.73888e+00,    4.24604e+01
   1.40700e+04,    5.91397e+00,    5.73900e+00,    4.24647e+01
   1.40800e+04,    5.91321e+00,    5.73912e+00,    4.24689e+01
   1.40900e+04,    5.91244e+00,    5.73925e+00,    4.24730e+01
   1.41000e+04,    5.91166e+00,    5.73937e+00,    4.24772e+01
   1.41100e+04,    5.91088e+00,    5.73949e+00,    4.24814e+01
   1.41200e+04,    5.91009e+00,    5.73961e+00,    4.24856e+01
   1.41300e+04,    5.90930e+00,    5.73973e+00,    4.24898e+01
   1.41400e+04,    5.90850e+00,    5.73985e+00,    4.24940e+01
   1.41500e+04,    5.90769e+00,    5.73997e+00,    4.24982e+01
   1.41600e+04,    5.90688e+00,    5.74009e+00,    4.25023e+01
   1.41700e+04,    5.90606e+00,    5.74021e+00,    4.25065e+01
   1.41800e+04,    5.90524e+00,    5.74032e+00,    4.25107e+01
   1.41900e+04,    5.90441e+00,    5.74044e+00,    4.25148e+01
   1.42000e+04,    5.90358e+00,    5.74056e+00,    4.25190e+01
   1.42100e+04,    5.90273e+00,    5.74067e+00,    4.25232e+01
   1.42200e+04,    5.90189e+00,    5.74078e+00,    4.25273e+01
   1.42300e+04,    5.90103e+00,    5.74090e+00,    4.25315e+01
   1.42400e+04,    5.90017e+00,    5.74101e+00,    4.25356e+01
   1.42500e+04,    5.89931e+00,    5.74112e+00,    4.25397e+01
   1.42600e+04,    5.89844e+00,    5.74123e+00,    4.25439e+01
   1.42700e+04,    5.89756e+00,    5.74134e+00,    4.25480e+01
   1.42800e+04,    5.89668e+00,    5.74145e+00,    4.25521e+01
   1.42900e+04,    5.89579e+00,    5.74156e+00,    4.25563e+01
   1.43000e+04,    5.89490e+00,    5.74167e+00,    4.25604e+01
   1.43100e+04,    5.89400e+00,    5.74177e+00,    4.25645e+01
   1.43200e+04,    5.89309e+00,    5.74188e+00,    4.25686e+01
   1.43300e+04,    5.89218e+00,    5.74198e+00,    4.25727e+01
   1.43400e+04,    5.89127e+00,    5.74209e+00,    4.25769e+01
   1.43500e+04,    5.89034e+00,    5.74219e+00,    4.25810e+01
   1.43600e+04,    5.88942e+00,    5.74229e+00,    4.25851e+01
   1.43700e+04,    5.88848e+00,    5.74240e+00,    4.25892e+01
   1.43800e+04,    5.88754e+00,    5.74250e+00,    4.25933e+01
   1.43900e+04,    5.88660e+00,    5.74260e+00,    4.25974e+01
   1.44000e+04,    5.88565e+00,    5.74270e+00,    4.26014e+01
   1.44100e+04,    5.88469e+00,    5.74280e+00,    4.26055e+01
   1.44200e+04,    5.88373e+00,    5.74289e+00,    4.26096e+01
   1.44300e+04,    5.88276e+00,    5.74299e+00,    4.26137e+01
   1.44400e+04,    5.88179e+00,    5.74309e+00,    4.26178e+01
   1.44500e+04,    5.88081e+00,    5.74318e+00,    4.26218e+01
   1.44600e+04,    5.87983e+00,    5.74328e+00,    4.26259e+01
   1.44700e+04,    5.87884e+00,    5.74337e+00,    4.26300e+01
   1.44800e+04,    5.87785e+00,    5.74347e+00,    4.26340e+01
   1.44900e+04,    5.87685e+00,    5.74356e+00,    4.26381e+01
   1.45000e+04,    5.87584e+00,    5.74365e+00,    4.26421e+01
   1.45100e+04,    5.87483e+00,    5.74374e+00,    4.26462e+01
   1.45200e+04,    5.87381e+00,    5.74383e+00,    4.26502e+01
   1.45300e+04,    5.87279e+00,    5.74392e+00,    4.26543e+01
   1.45400e+04,    5.87177e+00,    5.74401e+00,    4.26583e+01
   1.45500e+04,    5.87073e+00,    5.74410e+00,    4.26624e+01
   1.45600e+04,    5.86970e+00,    5.74418e+00,    4.26664e+01
   1.45700e+04,    5.86865e+00,    5.74427e+00,    4.26704e+01
   1.45800e+04,    5.86760e+00,    5.74435e+00,    4.26744e+01
   1.45900e+04,    5.86655e+00,    5.74444e+00,    4.26785e+01
   1.46000e+04,    5.86549e+00,    5.74452e+00,    4.26825e+01
   1.46100e+04,    5.86443e+00,    5.74460e+00,    4.26865e+01
   1.46200e+04,    5.86336e+00,    5.74468e+00,    4.26905e+01
   1.46300e+04,    5.86228e+00,    5.74477e+00,    4.26945e+01
   1.46400e+04,    5.86120e+00,    5.74485e+00,    4.26985e+01
   1.46500e+04,    5.86012e+00,    5.74492e+00,    4.27025e+01
   1.46600e+04,    5.85903e+00,    5.74500e+00,    4.27065e+01
   1.46700e+04,    5.85793e+00,    5.74508e+00,    4.27105e+01
   1.46800e+04,    5.85683e+00,    5.74516e+00,    4.27145e+01
   1.46900e+04,    5.85573e+00,    5.74523e+00,    4.27185e+01
   1.47000e+04,    5.85462e+00,    5.74531e+00,    4.27225e+01
   1.47100e+04,    5.85350e+00,    5.74538e+00,    4.27265e+01
   1.47200e+04,    5.85238e+00,    5.74545e+00,    4.27304e+01
   1.47300e+04,    5.85125e+00,    5.74553e+00,    4.27344e+01
   1.47400e+04,    5.85012e+00,    5.74560e+00,    4.27384e+01
   1.47500e+04,    5.84899e+00,    5.74567e+00,    4.27424e+01
   1.47600e+04,    5.84784e+00,    5.74574e+00,    4.27463e+01
   1.47700e+04,    5.84670e+00,    5.74581e+00,    4.27503e+01
   1.47800e+04,    5.84555e+00,    5.74587e+00,    4.27542e+01
   1.47900e+04,    5.84439e+00,    5.74594e+00,    4.27582e+01
   1.48000e+04,    5.84323e+00,    5.74601e+00,    4.27621e+01
   1.48100e+04,    5.84206e+00,    5.74607e+00,    4.27661e+01
   1.48200e+04,    5.84089e+00,    5.74614e+00,    4.27700e+01
   1.48300e+04,    5.83972e+00,    5.74620e+00,    4.27740e+01
   1.48400e+04,    5.83854e+00,    5.74626e+00,    4.27779e+01
   1.48500e+04,    5.83735e+00,    5.74632e+00,    4.27818e+01
   1.48600e+04,    5.83616e+00,    5.74639e+00,    4.27858e+01
   1.48700e+04,    5.83497e+00,    5.74645e+00,    4.27897e+01
   1.48800e+04,    5.83377e+00,    5.74650e+00,    4.27936e+01
   1.48900e+04,    5.83256e+00,    5.74656e+00,    4.27975e+01
   1.49000e+04,    5.83135e+00,    5.74662e+00,    4.28015e+01
   1.49100e+04,    5.83014e+00,    5.74668e+00,    4.28054e+01
   1.49200e+04,    5.82892e+00,    5.74673e+00,    4.28093e+01
   1.49300e+04,    5.82769e+00,    5.74679e+00,    4.28132e+01
   1.49400e+04,    5.82646e+00,    5.74684e+00,    4.28171e+01
   1.49500e+04,    5.82523e+00,    5.74689e+00,    4.28210e+01
   1.49600e+04,    5.82399e+00,    5.74695e+00,    4.28249e+01
   1.49700e+04,    5.82275e+00,    5.74700e+00,    4.28288e+01
   1.49800e+04,    5.82150e+00,    5.74705e+00,    4.28327e+01
   1.49900e+04,    5.82025e+00,    5.74710e+00,    4.28365e+01
   1.50000e+04,    5.81899e+00,    5.74714e+00,    4.28404e+01
